#  E (eV)   dos(E)     Int dos(E) EFermi =   -0.171 eV
  -9.000 -0.2567E-80 -0.2567E-82
  -8.990 -0.2572E-80 -0.5140E-82
  -8.980 -0.2577E-80 -0.7717E-82
  -8.970 -0.2582E-80 -0.1030E-81
  -8.960 -0.2587E-80 -0.1289E-81
  -8.950 -0.2592E-80 -0.1548E-81
  -8.940 -0.2597E-80 -0.1808E-81
  -8.930 -0.2602E-80 -0.2068E-81
  -8.920 -0.2607E-80 -0.2329E-81
  -8.910 -0.2613E-80 -0.2590E-81
  -8.900 -0.2618E-80 -0.2852E-81
  -8.890 -0.2623E-80 -0.3114E-81
  -8.880 -0.2628E-80 -0.3377E-81
  -8.870 -0.2633E-80 -0.3640E-81
  -8.860 -0.2638E-80 -0.3904E-81
  -8.850 -0.2643E-80 -0.4168E-81
  -8.840 -0.2648E-80 -0.4433E-81
  -8.830 -0.2653E-80 -0.4698E-81
  -8.820 -0.2658E-80 -0.4964E-81
  -8.810 -0.2663E-80 -0.5230E-81
  -8.800 -0.2668E-80 -0.5497E-81
  -8.790 -0.2673E-80 -0.5764E-81
  -8.780 -0.2678E-80 -0.6032E-81
  -8.770 -0.2683E-80 -0.6300E-81
  -8.760 -0.2688E-80 -0.6569E-81
  -8.750 -0.2693E-80 -0.6838E-81
  -8.740 -0.2698E-80 -0.7108E-81
  -8.730 -0.2703E-80 -0.7378E-81
  -8.720 -0.2708E-80 -0.7649E-81
  -8.710 -0.2713E-80 -0.7920E-81
  -8.700 -0.2718E-80 -0.8192E-81
  -8.690 -0.2723E-80 -0.8464E-81
  -8.680 -0.2728E-80 -0.8737E-81
  -8.670 -0.2733E-80 -0.9010E-81
  -8.660 -0.2738E-80 -0.9284E-81
  -8.650 -0.2743E-80 -0.9558E-81
  -8.640 -0.2748E-80 -0.9833E-81
  -8.630 -0.2753E-80 -0.1011E-80
  -8.620 -0.2758E-80 -0.1038E-80
  -8.610 -0.2763E-80 -0.1066E-80
  -8.600 -0.2768E-80 -0.1094E-80
  -8.590 -0.2773E-80 -0.1121E-80
  -8.580 -0.2778E-80 -0.1149E-80
  -8.570 -0.2783E-80 -0.1177E-80
  -8.560 -0.2788E-80 -0.1205E-80
  -8.550 -0.2793E-80 -0.1233E-80
  -8.540 -0.2798E-80 -0.1261E-80
  -8.530 -0.2803E-80 -0.1289E-80
  -8.520 -0.2808E-80 -0.1317E-80
  -8.510 -0.2813E-80 -0.1345E-80
  -8.500 -0.2818E-80 -0.1373E-80
  -8.490 -0.2823E-80 -0.1401E-80
  -8.480 -0.2828E-80 -0.1430E-80
  -8.470 -0.2833E-80 -0.1458E-80
  -8.460 -0.2838E-80 -0.1486E-80
  -8.450 -0.2843E-80 -0.1515E-80
  -8.440 -0.2848E-80 -0.1543E-80
  -8.430 -0.2853E-80 -0.1572E-80
  -8.420 -0.2858E-80 -0.1601E-80
  -8.410 -0.2863E-80 -0.1629E-80
  -8.400 -0.2868E-80 -0.1658E-80
  -8.390 -0.2873E-80 -0.1687E-80
  -8.380 -0.2878E-80 -0.1715E-80
  -8.370 -0.2883E-80 -0.1744E-80
  -8.360 -0.2888E-80 -0.1773E-80
  -8.350 -0.2893E-80 -0.1802E-80
  -8.340 -0.2898E-80 -0.1831E-80
  -8.330 -0.2903E-80 -0.1860E-80
  -8.320 -0.2908E-80 -0.1889E-80
  -8.310 -0.2913E-80 -0.1918E-80
  -8.300 -0.2918E-80 -0.1947E-80
  -8.290 -0.2923E-80 -0.1977E-80
  -8.280 -0.2928E-80 -0.2006E-80
  -8.270 -0.2933E-80 -0.2035E-80
  -8.260 -0.2938E-80 -0.2065E-80
  -8.250 -0.2943E-80 -0.2094E-80
  -8.240 -0.2948E-80 -0.2124E-80
  -8.230 -0.2953E-80 -0.2153E-80
  -8.220 -0.2958E-80 -0.2183E-80
  -8.210 -0.2963E-80 -0.2212E-80
  -8.200 -0.2968E-80 -0.2242E-80
  -8.190 -0.2973E-80 -0.2272E-80
  -8.180 -0.2978E-80 -0.2301E-80
  -8.170 -0.2983E-80 -0.2331E-80
  -8.160 -0.2988E-80 -0.2361E-80
  -8.150 -0.2993E-80 -0.2391E-80
  -8.140 -0.2998E-80 -0.2421E-80
  -8.130 -0.3003E-80 -0.2451E-80
  -8.120 -0.3008E-80 -0.2481E-80
  -8.110 -0.3013E-80 -0.2511E-80
  -8.100 -0.3018E-80 -0.2542E-80
  -8.090 -0.3023E-80 -0.2572E-80
  -8.080 -0.3028E-80 -0.2602E-80
  -8.070 -0.3033E-80 -0.2632E-80
  -8.060 -0.3038E-80 -0.2663E-80
  -8.050 -0.3043E-80 -0.2693E-80
  -8.040 -0.3048E-80 -0.2724E-80
  -8.030 -0.3053E-80 -0.2754E-80
  -8.020 -0.3058E-80 -0.2785E-80
  -8.010 -0.3063E-80 -0.2815E-80
  -8.000 -0.3068E-80 -0.2846E-80
  -7.990 -0.3073E-80 -0.2877E-80
  -7.980 -0.3078E-80 -0.2908E-80
  -7.970 -0.3083E-80 -0.2938E-80
  -7.960 -0.3089E-80 -0.2969E-80
  -7.950 -0.3094E-80 -0.3000E-80
  -7.940 -0.3099E-80 -0.3031E-80
  -7.930 -0.3104E-80 -0.3062E-80
  -7.920 -0.3109E-80 -0.3093E-80
  -7.910 -0.3114E-80 -0.3125E-80
  -7.900 -0.3119E-80 -0.3156E-80
  -7.890 -0.3124E-80 -0.3187E-80
  -7.880  0.5757E-76  0.5725E-78
  -7.870  0.1114E-67  0.1114E-69
  -7.860  0.7297E-60  0.7297E-62
  -7.850  0.1617E-52  0.1617E-54
  -7.840  0.1211E-45  0.1211E-47
  -7.830  0.3067E-39  0.3067E-41
  -7.820  0.2623E-33  0.2623E-35
  -7.810  0.7573E-28  0.7573E-30
  -7.800  0.7371E-23  0.7371E-25
  -7.790  0.2416E-18  0.2416E-20
  -7.780  0.2662E-14  0.2662E-16
  -7.770  0.9839E-11  0.9842E-13
  -7.760  0.1217E-07  0.1218E-09
  -7.750  0.5013E-05  0.5025E-07
  -7.740  0.6850E-03  0.6900E-05
  -7.730  0.3088E-01  0.3157E-03
  -7.720  0.4583E+00  0.4899E-02
  -7.710  0.2272E+01  0.2762E-01
  -7.700  0.3958E+01  0.6720E-01
  -7.690  0.2478E+01  0.9198E-01
  -7.680  0.5515E+00  0.9749E-01
  -7.670  0.1206E+01  0.1096E+00
  -7.660  0.1726E+01  0.1268E+00
  -7.650  0.7749E+00  0.1346E+00
  -7.640  0.9670E-01  0.1355E+00
  -7.630  0.8294E+00  0.1438E+00
  -7.620  0.1109E+01  0.1549E+00
  -7.610  0.5387E+00  0.1603E+00
  -7.600  0.1033E+01  0.1706E+00
  -7.590  0.7249E+00  0.1779E+00
  -7.580  0.7767E-01  0.1787E+00
  -7.570  0.7598E+00  0.1863E+00
  -7.560  0.1136E+01  0.1976E+00
  -7.550  0.2022E+00  0.1996E+00
  -7.540 -0.1115E+00  0.1985E+00
  -7.530  0.3356E+00  0.2019E+00
  -7.520  0.1124E+01  0.2131E+00
  -7.510  0.8643E+00  0.2218E+00
  -7.500  0.2396E+00  0.2242E+00
  -7.490  0.9494E+00  0.2337E+00
  -7.480  0.9428E+00  0.2431E+00
  -7.470  0.4987E-02  0.2431E+00
  -7.460 -0.1196E+00  0.2419E+00
  -7.450 -0.1649E-01  0.2418E+00
  -7.440  0.1914E-01  0.2420E+00
  -7.430  0.2548E+00  0.2445E+00
  -7.420  0.1009E+01  0.2546E+00
  -7.410  0.1200E+01  0.2666E+00
  -7.400  0.9179E+00  0.2758E+00
  -7.390  0.1007E+01  0.2859E+00
  -7.380  0.1667E+00  0.2875E+00
  -7.370 -0.1473E+00  0.2860E+00
  -7.360 -0.3184E-01  0.2857E+00
  -7.350 -0.1573E-02  0.2857E+00
  -7.340 -0.2108E-04  0.2857E+00
  -7.330  0.2710E-03  0.2857E+00
  -7.320  0.1379E-01  0.2859E+00
  -7.310  0.2448E+00  0.2883E+00
  -7.300  0.1632E+01  0.3046E+00
  -7.290  0.4611E+01  0.3507E+00
  -7.280  0.6039E+01  0.4111E+00
  -7.270  0.4072E+01  0.4518E+00
  -7.260  0.2266E+01  0.4745E+00
  -7.250  0.2101E+01  0.4955E+00
  -7.240  0.1911E+01  0.5146E+00
  -7.230  0.1398E+01  0.5286E+00
  -7.220  0.1798E+01  0.5466E+00
  -7.210  0.1765E+01  0.5642E+00
  -7.200  0.1037E+01  0.5746E+00
  -7.190  0.8608E+00  0.5832E+00
  -7.180  0.2695E+01  0.6102E+00
  -7.170  0.2942E+01  0.6396E+00
  -7.160  0.1733E+01  0.6569E+00
  -7.150  0.1973E+01  0.6766E+00
  -7.140  0.1720E+01  0.6938E+00
  -7.130  0.1146E+01  0.7053E+00
  -7.120  0.8439E+00  0.7137E+00
  -7.110  0.1040E+01  0.7241E+00
  -7.100  0.3837E+00  0.7280E+00
  -7.090  0.4910E+00  0.7329E+00
  -7.080  0.2032E+01  0.7532E+00
  -7.070  0.1830E+01  0.7715E+00
  -7.060  0.1757E+00  0.7733E+00
  -7.050  0.6557E+00  0.7798E+00
  -7.040  0.2054E+01  0.8004E+00
  -7.030  0.1819E+01  0.8186E+00
  -7.020  0.1199E+01  0.8305E+00
  -7.010  0.1396E+01  0.8445E+00
  -7.000  0.1768E+01  0.8622E+00
  -6.990  0.1627E+01  0.8785E+00
  -6.980  0.3473E+00  0.8819E+00
  -6.970 -0.1561E+00  0.8804E+00
  -6.960  0.5288E+00  0.8857E+00
  -6.950  0.2089E+01  0.9066E+00
  -6.940  0.1906E+01  0.9256E+00
  -6.930  0.7673E-01  0.9264E+00
  -6.920  0.2621E+00  0.9290E+00
  -6.910  0.1563E+01  0.9446E+00
  -6.900  0.1865E+01  0.9633E+00
  -6.890  0.7580E+00  0.9709E+00
  -6.880  0.4711E+00  0.9756E+00
  -6.870  0.1179E+01  0.9874E+00
  -6.860  0.9577E+00  0.9969E+00
  -6.850  0.1203E+01  0.1009E+01
  -6.840  0.1359E+01  0.1023E+01
  -6.830  0.1052E+01  0.1033E+01
  -6.820  0.2576E+00  0.1036E+01
  -6.810  0.4312E+00  0.1040E+01
  -6.800  0.1718E+01  0.1057E+01
  -6.790  0.2068E+01  0.1078E+01
  -6.780  0.1463E+01  0.1092E+01
  -6.770  0.8778E+00  0.1101E+01
  -6.760  0.4472E+00  0.1106E+01
  -6.750  0.1050E+01  0.1116E+01
  -6.740  0.6679E+00  0.1123E+01
  -6.730 -0.8847E-01  0.1122E+01
  -6.720  0.2068E+00  0.1124E+01
  -6.710  0.1366E+01  0.1138E+01
  -6.700  0.2160E+01  0.1159E+01
  -6.690  0.8796E+00  0.1168E+01
  -6.680 -0.1712E+00  0.1166E+01
  -6.670  0.2381E+00  0.1169E+01
  -6.660  0.1885E+01  0.1188E+01
  -6.650  0.3312E+01  0.1221E+01
  -6.640  0.1629E+01  0.1237E+01
  -6.630  0.4746E+00  0.1242E+01
  -6.620  0.1011E+01  0.1252E+01
  -6.610  0.5198E+00  0.1257E+01
  -6.600  0.7905E+00  0.1265E+01
  -6.590  0.1031E+01  0.1275E+01
  -6.580  0.1094E+00  0.1276E+01
  -6.570  0.8393E-02  0.1277E+01
  -6.560  0.1194E+01  0.1288E+01
  -6.550  0.3246E+01  0.1321E+01
  -6.540  0.2365E+01  0.1345E+01
  -6.530 -0.4117E-01  0.1344E+01
  -6.520 -0.2076E+00  0.1342E+01
  -6.510  0.8688E+00  0.1351E+01
  -6.500  0.3033E+01  0.1381E+01
  -6.490  0.3010E+01  0.1411E+01
  -6.480  0.1769E+01  0.1429E+01
  -6.470  0.4059E+01  0.1469E+01
  -6.460  0.4153E+01  0.1511E+01
  -6.450  0.3004E+01  0.1541E+01
  -6.440  0.2472E+01  0.1566E+01
  -6.430  0.1280E+01  0.1579E+01
  -6.420  0.1921E+01  0.1598E+01
  -6.410  0.1235E+01  0.1610E+01
  -6.400  0.9430E+00  0.1620E+01
  -6.390  0.2275E+01  0.1642E+01
  -6.380  0.2439E+01  0.1667E+01
  -6.370  0.7941E+00  0.1675E+01
  -6.360  0.3069E-01  0.1675E+01
  -6.350  0.1097E+01  0.1686E+01
  -6.340  0.2136E+01  0.1707E+01
  -6.330  0.2433E+01  0.1732E+01
  -6.320  0.9614E+00  0.1741E+01
  -6.310  0.2031E+00  0.1743E+01
  -6.300  0.1185E+01  0.1755E+01
  -6.290  0.1438E+01  0.1769E+01
  -6.280  0.1981E+01  0.1789E+01
  -6.270  0.2708E+01  0.1816E+01
  -6.260  0.2158E+01  0.1838E+01
  -6.250  0.9986E+00  0.1848E+01
  -6.240  0.3557E-01  0.1848E+01
  -6.230 -0.1183E+00  0.1847E+01
  -6.220  0.5149E+00  0.1852E+01
  -6.210  0.1879E+01  0.1871E+01
  -6.200  0.2277E+01  0.1894E+01
  -6.190  0.1422E+01  0.1908E+01
  -6.180  0.8715E+00  0.1917E+01
  -6.170  0.8552E+00  0.1925E+01
  -6.160  0.9550E+00  0.1935E+01
  -6.150  0.9798E-01  0.1936E+01
  -6.140  0.1132E+00  0.1937E+01
  -6.130  0.1437E+01  0.1951E+01
  -6.120  0.2425E+01  0.1976E+01
  -6.110  0.1053E+01  0.1986E+01
  -6.100  0.1495E+01  0.2001E+01
  -6.090  0.2597E+01  0.2027E+01
  -6.080  0.1540E+01  0.2042E+01
  -6.070  0.4202E+00  0.2047E+01
  -6.060 -0.9305E-01  0.2046E+01
  -6.050  0.5822E+00  0.2052E+01
  -6.040  0.1988E+01  0.2071E+01
  -6.030  0.1783E+01  0.2089E+01
  -6.020  0.1446E+00  0.2091E+01
  -6.010 -0.1253E+00  0.2089E+01
  -6.000  0.7656E+00  0.2097E+01
  -5.990  0.2148E+01  0.2119E+01
  -5.980  0.1668E+01  0.2135E+01
  -5.970  0.5498E+00  0.2141E+01
  -5.960  0.1026E+01  0.2151E+01
  -5.950  0.6922E+00  0.2158E+01
  -5.940  0.7380E+00  0.2165E+01
  -5.930  0.1097E+01  0.2176E+01
  -5.920  0.5299E+00  0.2182E+01
  -5.910  0.9875E+00  0.2191E+01
  -5.900  0.1082E+01  0.2202E+01
  -5.890  0.1577E+01  0.2218E+01
  -5.880  0.3162E+01  0.2250E+01
  -5.870  0.1814E+01  0.2268E+01
  -5.860 -0.1294E+00  0.2267E+01
  -5.850 -0.2168E+00  0.2264E+01
  -5.840  0.2387E+00  0.2267E+01
  -5.830  0.1058E+01  0.2277E+01
  -5.820  0.1356E+01  0.2291E+01
  -5.810  0.1153E+01  0.2302E+01
  -5.800  0.7221E+00  0.2310E+01
  -5.790 -0.2093E-01  0.2309E+01
  -5.780  0.3983E+00  0.2313E+01
  -5.770  0.1668E+01  0.2330E+01
  -5.760  0.2242E+01  0.2352E+01
  -5.750  0.2074E+01  0.2373E+01
  -5.740  0.3119E+01  0.2404E+01
  -5.730  0.4188E+01  0.2446E+01
  -5.720  0.2562E+01  0.2472E+01
  -5.710  0.1079E+01  0.2483E+01
  -5.700  0.3414E+00  0.2486E+01
  -5.690 -0.1701E+00  0.2484E+01
  -5.680  0.3174E-01  0.2485E+01
  -5.670  0.9463E+00  0.2494E+01
  -5.660  0.2795E+01  0.2522E+01
  -5.650  0.3148E+01  0.2554E+01
  -5.640  0.1798E+01  0.2572E+01
  -5.630  0.3726E+00  0.2575E+01
  -5.620  0.2563E+00  0.2578E+01
  -5.610  0.1143E+01  0.2589E+01
  -5.600  0.9881E+00  0.2599E+01
  -5.590  0.1513E+01  0.2614E+01
  -5.580  0.2465E+01  0.2639E+01
  -5.570  0.1832E+01  0.2657E+01
  -5.560  0.1631E+01  0.2674E+01
  -5.550  0.1277E+01  0.2686E+01
  -5.540  0.1132E+01  0.2698E+01
  -5.530  0.1511E+01  0.2713E+01
  -5.520  0.1388E+01  0.2727E+01
  -5.510  0.1146E+01  0.2738E+01
  -5.500  0.9633E+00  0.2748E+01
  -5.490  0.1423E+00  0.2749E+01
  -5.480  0.8683E-01  0.2750E+01
  -5.470  0.1186E+01  0.2762E+01
  -5.460  0.2142E+01  0.2783E+01
  -5.450  0.1315E+01  0.2797E+01
  -5.440  0.1690E+01  0.2813E+01
  -5.430  0.4398E+01  0.2857E+01
  -5.420  0.2860E+01  0.2886E+01
  -5.410 -0.2175E+00  0.2884E+01
  -5.400  0.1666E+00  0.2886E+01
  -5.390  0.1166E+01  0.2897E+01
  -5.380  0.6461E+00  0.2904E+01
  -5.370  0.2894E+00  0.2907E+01
  -5.360  0.1090E+01  0.2917E+01
  -5.350  0.8521E+00  0.2926E+01
  -5.340  0.8878E+00  0.2935E+01
  -5.330  0.3274E+01  0.2968E+01
  -5.320  0.4339E+01  0.3011E+01
  -5.310  0.3004E+01  0.3041E+01
  -5.300  0.1483E+01  0.3056E+01
  -5.290  0.2178E+00  0.3058E+01
  -5.280 -0.2094E+00  0.3056E+01
  -5.270  0.1420E+00  0.3057E+01
  -5.260  0.9891E+00  0.3067E+01
  -5.250  0.1594E+01  0.3083E+01
  -5.240  0.1320E+01  0.3096E+01
  -5.230  0.4872E+00  0.3101E+01
  -5.220 -0.1480E+00  0.3100E+01
  -5.210 -0.4945E-01  0.3099E+01
  -5.200  0.3092E+00  0.3102E+01
  -5.190  0.1117E+01  0.3114E+01
  -5.180  0.1542E+01  0.3129E+01
  -5.170  0.2700E+01  0.3156E+01
  -5.160  0.3163E+01  0.3188E+01
  -5.150  0.4359E+00  0.3192E+01
  -5.140 -0.3676E+00  0.3188E+01
  -5.130  0.3854E+00  0.3192E+01
  -5.120  0.1461E+01  0.3207E+01
  -5.110  0.1758E+01  0.3224E+01
  -5.100  0.8681E+00  0.3233E+01
  -5.090 -0.6840E-01  0.3232E+01
  -5.080 -0.3951E-01  0.3232E+01
  -5.070  0.6828E+00  0.3239E+01
  -5.060  0.1864E+01  0.3257E+01
  -5.050  0.1839E+01  0.3276E+01
  -5.040  0.1335E+01  0.3289E+01
  -5.030  0.2700E+01  0.3316E+01
  -5.020  0.3427E+01  0.3350E+01
  -5.010  0.3197E+01  0.3382E+01
  -5.000  0.3069E+01  0.3413E+01
  -4.990  0.3283E+01  0.3446E+01
  -4.980  0.5385E+01  0.3500E+01
  -4.970  0.7846E+01  0.3578E+01
  -4.960  0.6107E+01  0.3639E+01
  -4.950  0.2593E+01  0.3665E+01
  -4.940  0.2387E+01  0.3689E+01
  -4.930  0.3367E+01  0.3723E+01
  -4.920  0.3333E+01  0.3756E+01
  -4.910  0.3062E+01  0.3787E+01
  -4.900  0.3540E+01  0.3822E+01
  -4.890  0.2397E+01  0.3846E+01
  -4.880  0.1404E+01  0.3860E+01
  -4.870  0.2596E+01  0.3886E+01
  -4.860  0.3605E+01  0.3922E+01
  -4.850  0.3220E+01  0.3954E+01
  -4.840  0.1192E+01  0.3966E+01
  -4.830  0.9866E+00  0.3976E+01
  -4.820  0.1888E+01  0.3995E+01
  -4.810  0.2131E+01  0.4016E+01
  -4.800  0.2184E+01  0.4038E+01
  -4.790  0.3040E+01  0.4068E+01
  -4.780  0.3712E+01  0.4106E+01
  -4.770  0.1428E+01  0.4120E+01
  -4.760  0.6483E+00  0.4126E+01
  -4.750  0.1519E+01  0.4142E+01
  -4.740  0.3399E+01  0.4176E+01
  -4.730  0.4655E+01  0.4222E+01
  -4.720  0.2195E+01  0.4244E+01
  -4.710  0.1318E+01  0.4257E+01
  -4.700  0.1017E+01  0.4267E+01
  -4.690  0.1210E+01  0.4279E+01
  -4.680  0.3284E+01  0.4312E+01
  -4.670  0.3246E+01  0.4345E+01
  -4.660  0.2772E+01  0.4373E+01
  -4.650  0.2615E+01  0.4399E+01
  -4.640  0.1361E+01  0.4412E+01
  -4.630  0.2936E+01  0.4442E+01
  -4.620  0.3364E+01  0.4475E+01
  -4.610  0.2169E+01  0.4497E+01
  -4.600  0.1864E+01  0.4516E+01
  -4.590  0.3380E+01  0.4549E+01
  -4.580  0.4957E+01  0.4599E+01
  -4.570  0.2697E+01  0.4626E+01
  -4.560  0.1743E+01  0.4643E+01
  -4.550  0.2589E+01  0.4669E+01
  -4.540  0.4176E+01  0.4711E+01
  -4.530  0.5095E+01  0.4762E+01
  -4.520  0.5796E+01  0.4820E+01
  -4.510  0.6148E+01  0.4881E+01
  -4.500  0.8056E+01  0.4962E+01
  -4.490  0.1034E+02  0.5065E+01
  -4.480  0.8434E+01  0.5150E+01
  -4.470  0.7291E+01  0.5223E+01
  -4.460  0.1051E+02  0.5328E+01
  -4.450  0.1050E+02  0.5433E+01
  -4.440  0.6969E+01  0.5502E+01
  -4.430  0.6271E+01  0.5565E+01
  -4.420  0.7239E+01  0.5638E+01
  -4.410  0.5742E+01  0.5695E+01
  -4.400  0.2960E+01  0.5725E+01
  -4.390  0.2689E+01  0.5751E+01
  -4.380  0.3173E+01  0.5783E+01
  -4.370  0.3557E+01  0.5819E+01
  -4.360  0.4224E+01  0.5861E+01
  -4.350  0.5639E+01  0.5917E+01
  -4.340  0.6410E+01  0.5981E+01
  -4.330  0.2870E+01  0.6010E+01
  -4.320 -0.5433E+00  0.6005E+01
  -4.310 -0.4252E+00  0.6000E+01
  -4.300 -0.4761E-01  0.6000E+01
  -4.290 -0.1514E-02  0.6000E+01
  -4.280 -0.1516E-04  0.6000E+01
  -4.270 -0.4943E-07  0.6000E+01
  -4.260 -0.5335E-10  0.6000E+01
  -4.250 -0.1920E-13  0.6000E+01
  -4.240 -0.2316E-17  0.6000E+01
  -4.230 -0.9382E-22  0.6000E+01
  -4.220 -0.1280E-26  0.6000E+01
  -4.210 -0.5884E-32  0.6000E+01
  -4.200 -0.9129E-38  0.6000E+01
  -4.190 -0.4783E-44  0.6000E+01
  -4.180 -0.8469E-51  0.6000E+01
  -4.170 -0.5071E-58  0.6000E+01
  -4.160 -0.1027E-65  0.6000E+01
  -4.150 -0.7039E-74  0.6000E+01
  -4.140 -0.5019E-80  0.6000E+01
  -4.130 -0.5008E-80  0.6000E+01
  -4.120 -0.5013E-80  0.6000E+01
  -4.110 -0.5018E-80  0.6000E+01
  -4.100 -0.5023E-80  0.6000E+01
  -4.090 -0.5028E-80  0.6000E+01
  -4.080 -0.5033E-80  0.6000E+01
  -4.070 -0.5038E-80  0.6000E+01
  -4.060 -0.5043E-80  0.6000E+01
  -4.050 -0.5048E-80  0.6000E+01
  -4.040 -0.5053E-80  0.6000E+01
  -4.030 -0.5058E-80  0.6000E+01
  -4.020 -0.5063E-80  0.6000E+01
  -4.010 -0.5068E-80  0.6000E+01
  -4.000 -0.5073E-80  0.6000E+01
  -3.990 -0.5078E-80  0.6000E+01
  -3.980 -0.5083E-80  0.6000E+01
  -3.970 -0.5088E-80  0.6000E+01
  -3.960 -0.5093E-80  0.6000E+01
  -3.950 -0.5098E-80  0.6000E+01
  -3.940 -0.5103E-80  0.6000E+01
  -3.930 -0.5108E-80  0.6000E+01
  -3.920 -0.5113E-80  0.6000E+01
  -3.910 -0.5118E-80  0.6000E+01
  -3.900 -0.5123E-80  0.6000E+01
  -3.890 -0.5128E-80  0.6000E+01
  -3.880 -0.5133E-80  0.6000E+01
  -3.870 -0.5138E-80  0.6000E+01
  -3.860 -0.5143E-80  0.6000E+01
  -3.850 -0.5148E-80  0.6000E+01
  -3.840 -0.4971E-80  0.6000E+01
  -3.830  0.6737E-73  0.6000E+01
  -3.820  0.8455E-65  0.6000E+01
  -3.810  0.3591E-57  0.6000E+01
  -3.800  0.5158E-50  0.6000E+01
  -3.790  0.2505E-43  0.6000E+01
  -3.780  0.4112E-37  0.6000E+01
  -3.770  0.2280E-31  0.6000E+01
  -3.760  0.4266E-26  0.6000E+01
  -3.750  0.2693E-21  0.6000E+01
  -3.740  0.5729E-17  0.6000E+01
  -3.730  0.4105E-13  0.6000E+01
  -3.720  0.9909E-10  0.6000E+01
  -3.710  0.8063E-07  0.6000E+01
  -3.700  0.2218E-04  0.6000E+01
  -3.690  0.2073E-02  0.6000E+01
  -3.680  0.6636E-01  0.6001E+01
  -3.670  0.7327E+00  0.6008E+01
  -3.660  0.2770E+01  0.6036E+01
  -3.650  0.3594E+01  0.6072E+01
  -3.640  0.2390E+01  0.6096E+01
  -3.630  0.1729E+01  0.6113E+01
  -3.620  0.8755E+00  0.6122E+01
  -3.610  0.1685E+01  0.6138E+01
  -3.600  0.1623E+01  0.6155E+01
  -3.590  0.3803E+00  0.6158E+01
  -3.580  0.7651E+00  0.6166E+01
  -3.570  0.1738E+01  0.6184E+01
  -3.560  0.1390E+01  0.6197E+01
  -3.550  0.3039E+00  0.6200E+01
  -3.540  0.1166E+00  0.6202E+01
  -3.530  0.1105E+01  0.6213E+01
  -3.520  0.1661E+01  0.6229E+01
  -3.510  0.1219E+01  0.6241E+01
  -3.500  0.2512E+00  0.6244E+01
  -3.490 -0.1292E+00  0.6243E+01
  -3.480  0.3552E+00  0.6246E+01
  -3.470  0.1364E+01  0.6260E+01
  -3.460  0.1762E+01  0.6278E+01
  -3.450  0.9967E+00  0.6287E+01
  -3.440 -0.2262E-02  0.6287E+01
  -3.430 -0.1455E+00  0.6286E+01
  -3.420  0.3201E-01  0.6286E+01
  -3.410  0.5563E+00  0.6292E+01
  -3.400  0.1843E+01  0.6310E+01
  -3.390  0.1921E+01  0.6330E+01
  -3.380  0.3161E+00  0.6333E+01
  -3.370 -0.2352E+00  0.6330E+01
  -3.360 -0.6178E-01  0.6330E+01
  -3.350  0.4437E-02  0.6330E+01
  -3.340  0.1757E+00  0.6332E+01
  -3.330  0.1194E+01  0.6343E+01
  -3.320  0.2399E+01  0.6367E+01
  -3.310  0.1024E+01  0.6378E+01
  -3.300 -0.2658E+00  0.6375E+01
  -3.290 -0.1283E+00  0.6374E+01
  -3.280 -0.9475E-02  0.6374E+01
  -3.270  0.3271E-01  0.6374E+01
  -3.260  0.3510E+00  0.6377E+01
  -3.250  0.1164E+01  0.6389E+01
  -3.240  0.1344E+01  0.6403E+01
  -3.230  0.1148E+01  0.6414E+01
  -3.220  0.5700E+00  0.6420E+01
  -3.210 -0.1245E+00  0.6418E+01
  -3.200 -0.8166E-01  0.6418E+01
  -3.190  0.2642E-01  0.6418E+01
  -3.180  0.3566E+00  0.6422E+01
  -3.170  0.1115E+01  0.6433E+01
  -3.160  0.8596E+00  0.6441E+01
  -3.150  0.1926E-02  0.6441E+01
  -3.140  0.3417E+00  0.6445E+01
  -3.130  0.1165E+01  0.6456E+01
  -3.120  0.7169E+00  0.6464E+01
  -3.110 -0.9279E-01  0.6463E+01
  -3.100  0.5101E-01  0.6463E+01
  -3.090  0.7579E+00  0.6471E+01
  -3.080  0.1187E+01  0.6483E+01
  -3.070  0.2933E+00  0.6485E+01
  -3.060 -0.1518E+00  0.6484E+01
  -3.050 -0.3967E-01  0.6484E+01
  -3.040  0.4407E-01  0.6484E+01
  -3.030  0.4279E+00  0.6488E+01
  -3.020  0.1177E+01  0.6500E+01
  -3.010  0.9118E+00  0.6509E+01
  -3.000  0.7406E+00  0.6517E+01
  -2.990  0.1065E+01  0.6527E+01
  -2.980  0.2110E+00  0.6529E+01
  -2.970 -0.1491E+00  0.6528E+01
  -2.960 -0.3468E-01  0.6527E+01
  -2.950 -0.1798E-02  0.6527E+01
  -2.940  0.3071E-04  0.6527E+01
  -2.930  0.4635E-02  0.6528E+01
  -2.920  0.1204E+00  0.6529E+01
  -2.910  0.9887E+00  0.6539E+01
  -2.900  0.2390E+01  0.6563E+01
  -2.890  0.1297E+01  0.6575E+01
  -2.880 -0.2328E+00  0.6573E+01
  -2.870 -0.1579E+00  0.6572E+01
  -2.860 -0.1448E-01  0.6571E+01
  -2.850 -0.3652E-03  0.6571E+01
  -2.840  0.1091E-03  0.6571E+01
  -2.830  0.6567E-02  0.6571E+01
  -2.820  0.1241E+00  0.6573E+01
  -2.810  0.7276E+00  0.6580E+01
  -2.800  0.1204E+01  0.6592E+01
  -2.790  0.4200E+00  0.6596E+01
  -2.780  0.4319E+00  0.6601E+01
  -2.770  0.1172E+01  0.6612E+01
  -2.760  0.5189E+00  0.6617E+01
  -2.750 -0.1401E+00  0.6616E+01
  -2.740 -0.6420E-01  0.6615E+01
  -2.730 -0.1154E-02  0.6615E+01
  -2.720  0.8529E-01  0.6616E+01
  -2.710  0.6008E+00  0.6622E+01
  -2.700  0.1218E+01  0.6634E+01
  -2.690  0.4989E+00  0.6639E+01
  -2.680 -0.1428E+00  0.6638E+01
  -2.670 -0.6144E-01  0.6637E+01
  -2.660  0.1066E-01  0.6638E+01
  -2.650  0.2162E+00  0.6640E+01
  -2.640  0.9358E+00  0.6649E+01
  -2.630  0.1082E+01  0.6660E+01
  -2.620  0.1340E+00  0.6661E+01
  -2.610  0.1208E+00  0.6662E+01
  -2.600  0.9786E+00  0.6672E+01
  -2.590  0.1013E+01  0.6682E+01
  -2.580  0.4873E-01  0.6683E+01
  -2.570 -0.1284E+00  0.6682E+01
  -2.560 -0.2039E-01  0.6681E+01
  -2.550 -0.8010E-03  0.6681E+01
  -2.540 -0.8372E-05  0.6681E+01
  -2.530  0.1771E-03  0.6681E+01
  -2.520  0.9923E-02  0.6681E+01
  -2.510  0.1862E+00  0.6683E+01
  -2.500  0.1160E+01  0.6695E+01
  -2.490  0.2290E+01  0.6718E+01
  -2.480  0.1108E+01  0.6729E+01
  -2.470 -0.2008E+00  0.6727E+01
  -2.460 -0.1429E+00  0.6725E+01
  -2.450 -0.1471E-01  0.6725E+01
  -2.440 -0.4323E-03  0.6725E+01
  -2.430 -0.3982E-05  0.6725E+01
  -2.420  0.6243E-05  0.6725E+01
  -2.410  0.7033E-03  0.6725E+01
  -2.400  0.2577E-01  0.6726E+01
  -2.390  0.3005E+00  0.6729E+01
  -2.380  0.1059E+01  0.6739E+01
  -2.370  0.9884E+00  0.6749E+01
  -2.360  0.3944E+00  0.6753E+01
  -2.350  0.1026E+01  0.6763E+01
  -2.340  0.7835E+00  0.6771E+01
  -2.330 -0.7330E-01  0.6770E+01
  -2.320 -0.9791E-01  0.6769E+01
  -2.310 -0.9635E-02  0.6769E+01
  -2.300  0.4496E-01  0.6770E+01
  -2.290  0.5402E+00  0.6775E+01
  -2.280  0.2128E+01  0.6796E+01
  -2.270  0.2904E+01  0.6825E+01
  -2.260  0.2009E+01  0.6846E+01
  -2.250  0.1751E+01  0.6863E+01
  -2.240  0.1487E+01  0.6878E+01
  -2.230  0.4060E+00  0.6882E+01
  -2.220 -0.2774E-01  0.6882E+01
  -2.210  0.9818E+00  0.6891E+01
  -2.200  0.2249E+01  0.6914E+01
  -2.190  0.1632E+01  0.6930E+01
  -2.180  0.9970E+00  0.6940E+01
  -2.170  0.7204E+00  0.6947E+01
  -2.160  0.3450E+00  0.6951E+01
  -2.150  0.1060E+01  0.6962E+01
  -2.140  0.7610E+00  0.6969E+01
  -2.130  0.1507E+00  0.6971E+01
  -2.120  0.8854E+00  0.6979E+01
  -2.110  0.1103E+01  0.6991E+01
  -2.100  0.6040E+00  0.6997E+01
  -2.090  0.1085E+01  0.7007E+01
  -2.080  0.7407E+00  0.7015E+01
  -2.070  0.7015E+00  0.7022E+01
  -2.060  0.1091E+01  0.7033E+01
  -2.050  0.3512E+00  0.7036E+01
  -2.040  0.6154E+00  0.7042E+01
  -2.030  0.1273E+01  0.7055E+01
  -2.020  0.1008E+01  0.7065E+01
  -2.010  0.1059E+01  0.7076E+01
  -2.000  0.4234E+00  0.7080E+01
  -1.990  0.5067E+00  0.7085E+01
  -1.980  0.1179E+01  0.7097E+01
  -1.970  0.6754E+00  0.7104E+01
  -1.960  0.1782E+01  0.7121E+01
  -1.950  0.4991E+01  0.7171E+01
  -1.940  0.4940E+01  0.7221E+01
  -1.930  0.2941E+01  0.7250E+01
  -1.920  0.2562E+01  0.7276E+01
  -1.910  0.2277E+01  0.7299E+01
  -1.900  0.2255E+01  0.7321E+01
  -1.890  0.2602E+01  0.7347E+01
  -1.880  0.1793E+01  0.7365E+01
  -1.870  0.1488E+01  0.7380E+01
  -1.860  0.3236E+01  0.7412E+01
  -1.850  0.3487E+01  0.7447E+01
  -1.840  0.1484E+01  0.7462E+01
  -1.830  0.1654E+01  0.7479E+01
  -1.820  0.2189E+01  0.7500E+01
  -1.810  0.2547E+01  0.7526E+01
  -1.800  0.5017E+01  0.7576E+01
  -1.790  0.3363E+01  0.7610E+01
  -1.780  0.4323E+00  0.7614E+01
  -1.770  0.1156E+01  0.7626E+01
  -1.760  0.2180E+01  0.7647E+01
  -1.750  0.1670E+01  0.7664E+01
  -1.740  0.1596E+01  0.7680E+01
  -1.730  0.2512E+01  0.7705E+01
  -1.720  0.2977E+01  0.7735E+01
  -1.710  0.2857E+01  0.7764E+01
  -1.700  0.3756E+01  0.7801E+01
  -1.690  0.4190E+01  0.7843E+01
  -1.680  0.2787E+01  0.7871E+01
  -1.670  0.1371E+01  0.7885E+01
  -1.660  0.1107E+01  0.7896E+01
  -1.650  0.1207E+01  0.7908E+01
  -1.640  0.2158E+01  0.7929E+01
  -1.630  0.5082E+01  0.7980E+01
  -1.620  0.5921E+01  0.8039E+01
  -1.610  0.2667E+01  0.8066E+01
  -1.600  0.3615E+01  0.8102E+01
  -1.590  0.3998E+01  0.8142E+01
  -1.580  0.1590E+01  0.8158E+01
  -1.570  0.2056E+01  0.8179E+01
  -1.560  0.3127E+01  0.8210E+01
  -1.550  0.1630E+01  0.8226E+01
  -1.540  0.4546E+00  0.8231E+01
  -1.530  0.1114E+01  0.8242E+01
  -1.520  0.1123E+01  0.8253E+01
  -1.510  0.1943E+01  0.8272E+01
  -1.500  0.3386E+01  0.8306E+01
  -1.490  0.2904E+01  0.8335E+01
  -1.480  0.1359E+01  0.8349E+01
  -1.470  0.2670E+01  0.8376E+01
  -1.460  0.2301E+01  0.8399E+01
  -1.450  0.2204E+00  0.8401E+01
  -1.440  0.7759E+00  0.8409E+01
  -1.430  0.2579E+01  0.8434E+01
  -1.420  0.2778E+01  0.8462E+01
  -1.410  0.2401E+01  0.8486E+01
  -1.400  0.1857E+01  0.8505E+01
  -1.390  0.6714E+00  0.8511E+01
  -1.380  0.9800E+00  0.8521E+01
  -1.370  0.2354E+01  0.8545E+01
  -1.360  0.2614E+01  0.8571E+01
  -1.350  0.1938E+01  0.8590E+01
  -1.340  0.1994E+01  0.8610E+01
  -1.330  0.1958E+01  0.8630E+01
  -1.320  0.1057E+01  0.8640E+01
  -1.310  0.6067E+00  0.8647E+01
  -1.300  0.2234E+01  0.8669E+01
  -1.290  0.3384E+01  0.8703E+01
  -1.280  0.2304E+01  0.8726E+01
  -1.270  0.8835E+00  0.8735E+01
  -1.260  0.9572E+00  0.8744E+01
  -1.250  0.1053E+01  0.8755E+01
  -1.240  0.1853E+01  0.8773E+01
  -1.230  0.3322E+01  0.8806E+01
  -1.220  0.2616E+01  0.8833E+01
  -1.210  0.8397E+00  0.8841E+01
  -1.200  0.1013E+01  0.8851E+01
  -1.190  0.2431E+01  0.8875E+01
  -1.180  0.2028E+01  0.8896E+01
  -1.170  0.2828E+01  0.8924E+01
  -1.160  0.3243E+01  0.8956E+01
  -1.150  0.4238E+01  0.8999E+01
  -1.140  0.6665E+01  0.9065E+01
  -1.130  0.4087E+01  0.9106E+01
  -1.120  0.6717E+00  0.9113E+01
  -1.110  0.2262E+01  0.9136E+01
  -1.100  0.3209E+01  0.9168E+01
  -1.090  0.1738E+01  0.9185E+01
  -1.080  0.3297E+01  0.9218E+01
  -1.070  0.4810E+01  0.9266E+01
  -1.060  0.6266E+01  0.9329E+01
  -1.050  0.5606E+01  0.9385E+01
  -1.040  0.3439E+01  0.9419E+01
  -1.030  0.4335E+01  0.9463E+01
  -1.020  0.7421E+01  0.9537E+01
  -1.010  0.4703E+01  0.9584E+01
  -1.000  0.9930E+00  0.9594E+01
  -0.990  0.1394E+01  0.9608E+01
  -0.980  0.2871E+01  0.9636E+01
  -0.970  0.2973E+01  0.9666E+01
  -0.960  0.2857E+01  0.9695E+01
  -0.950  0.2726E+01  0.9722E+01
  -0.940  0.3123E+01  0.9753E+01
  -0.930  0.1094E+01  0.9764E+01
  -0.920  0.1710E+00  0.9766E+01
  -0.910  0.2228E+01  0.9788E+01
  -0.900  0.3191E+01  0.9820E+01
  -0.890  0.1128E+01  0.9831E+01
  -0.880  0.1228E+01  0.9844E+01
  -0.870  0.4378E+01  0.9887E+01
  -0.860  0.5299E+01  0.9940E+01
  -0.850  0.2448E+01  0.9965E+01
  -0.840  0.1248E+01  0.9977E+01
  -0.830  0.2090E+01  0.9998E+01
  -0.820  0.2550E+01  0.1002E+02
  -0.810  0.2676E+01  0.1005E+02
  -0.800  0.5875E+01  0.1011E+02
  -0.790  0.7738E+01  0.1019E+02
  -0.780  0.6366E+01  0.1025E+02
  -0.770  0.4990E+01  0.1030E+02
  -0.760  0.5771E+01  0.1036E+02
  -0.750  0.4678E+01  0.1040E+02
  -0.740  0.1401E+01  0.1042E+02
  -0.730  0.2568E+01  0.1044E+02
  -0.720  0.2518E+01  0.1047E+02
  -0.710  0.2077E+01  0.1049E+02
  -0.700  0.3568E+01  0.1053E+02
  -0.690  0.3917E+01  0.1057E+02
  -0.680  0.5098E+01  0.1062E+02
  -0.670  0.3114E+01  0.1065E+02
  -0.660  0.1091E+01  0.1066E+02
  -0.650  0.2609E+01  0.1068E+02
  -0.640  0.2925E+01  0.1071E+02
  -0.630  0.2569E+01  0.1074E+02
  -0.620  0.3000E+01  0.1077E+02
  -0.610  0.3132E+01  0.1080E+02
  -0.600  0.1656E+01  0.1082E+02
  -0.590  0.1660E+01  0.1083E+02
  -0.580  0.2131E+01  0.1086E+02
  -0.570  0.9297E+00  0.1086E+02
  -0.560  0.1271E+01  0.1088E+02
  -0.550  0.2896E+01  0.1091E+02
  -0.540  0.3639E+01  0.1094E+02
  -0.530  0.3088E+01  0.1097E+02
  -0.520  0.1792E+01  0.1099E+02
  -0.510  0.3147E+01  0.1102E+02
  -0.500  0.3943E+01  0.1106E+02
  -0.490  0.3263E+01  0.1109E+02
  -0.480  0.2564E+01  0.1112E+02
  -0.470  0.1702E+01  0.1114E+02
  -0.460  0.1984E+01  0.1116E+02
  -0.450  0.2747E+01  0.1118E+02
  -0.440  0.2487E+01  0.1121E+02
  -0.430  0.2503E+01  0.1123E+02
  -0.420  0.1729E+01  0.1125E+02
  -0.410  0.1329E+01  0.1127E+02
  -0.400  0.2474E+01  0.1129E+02
  -0.390  0.3649E+01  0.1133E+02
  -0.380  0.3770E+01  0.1136E+02
  -0.370  0.3192E+01  0.1140E+02
  -0.360  0.3947E+01  0.1144E+02
  -0.350  0.3314E+01  0.1147E+02
  -0.340  0.2742E+01  0.1150E+02
  -0.330  0.2712E+01  0.1152E+02
  -0.320  0.3062E+01  0.1155E+02
  -0.310  0.3155E+01  0.1159E+02
  -0.300  0.2697E+01  0.1161E+02
  -0.290  0.4968E+01  0.1166E+02
  -0.280  0.8194E+01  0.1174E+02
  -0.270  0.8576E+01  0.1183E+02
  -0.260  0.6646E+01  0.1190E+02
  -0.250  0.4320E+01  0.1194E+02
  -0.240  0.2283E+01  0.1196E+02
  -0.230  0.2225E+01  0.1198E+02
  -0.220  0.3123E+01  0.1202E+02
  -0.210  0.3182E+01  0.1205E+02
  -0.200  0.3445E+01  0.1208E+02
  -0.190  0.4317E+01  0.1213E+02
  -0.180  0.2407E+01  0.1215E+02
  -0.170  0.3235E+01  0.1218E+02
  -0.160  0.6256E+01  0.1224E+02
  -0.150  0.4495E+01  0.1229E+02
  -0.140  0.2489E+01  0.1231E+02
  -0.130  0.3652E+01  0.1235E+02
  -0.120  0.4132E+01  0.1239E+02
  -0.110  0.2962E+01  0.1242E+02
  -0.100  0.4224E+01  0.1246E+02
  -0.090  0.4431E+01  0.1251E+02
  -0.080  0.4984E+01  0.1256E+02
  -0.070  0.7147E+01  0.1263E+02
  -0.060  0.7645E+01  0.1271E+02
  -0.050  0.7404E+01  0.1278E+02
  -0.040  0.6404E+01  0.1284E+02
  -0.030  0.4949E+01  0.1289E+02
  -0.020  0.2378E+01  0.1292E+02
  -0.010  0.1703E+01  0.1293E+02
  -0.000  0.2408E+01  0.1296E+02
   0.010  0.1305E+01  0.1297E+02
   0.020  0.5643E+00  0.1298E+02
   0.030  0.1079E+01  0.1299E+02
   0.040  0.8833E+00  0.1300E+02
   0.050  0.1494E+01  0.1301E+02
   0.060  0.1870E+01  0.1303E+02
   0.070  0.5797E+00  0.1304E+02
   0.080 -0.2002E+00  0.1303E+02
   0.090 -0.9143E-01  0.1303E+02
   0.100 -0.4632E-02  0.1303E+02
   0.110  0.7878E-01  0.1303E+02
   0.120  0.5820E+00  0.1304E+02
   0.130  0.1351E+01  0.1305E+02
   0.140  0.1560E+01  0.1307E+02
   0.150  0.2707E+01  0.1310E+02
   0.160  0.2598E+01  0.1312E+02
   0.170  0.3317E+00  0.1313E+02
   0.180 -0.3381E+00  0.1312E+02
   0.190 -0.7793E-01  0.1312E+02
   0.200 -0.3278E-02  0.1312E+02
   0.210  0.3659E-01  0.1312E+02
   0.220  0.4143E+00  0.1313E+02
   0.230  0.1587E+01  0.1314E+02
   0.240  0.2057E+01  0.1316E+02
   0.250  0.8644E+00  0.1317E+02
   0.260  0.7675E+00  0.1318E+02
   0.270  0.1347E+01  0.1319E+02
   0.280  0.1876E+01  0.1321E+02
   0.290  0.2386E+01  0.1323E+02
   0.300  0.1533E+01  0.1325E+02
   0.310  0.1999E+01  0.1327E+02
   0.320  0.2529E+01  0.1329E+02
   0.330  0.2422E+01  0.1332E+02
   0.340  0.4850E+01  0.1337E+02
   0.350  0.5875E+01  0.1343E+02
   0.360  0.4449E+01  0.1347E+02
   0.370  0.5403E+01  0.1352E+02
   0.380  0.6227E+01  0.1359E+02
   0.390  0.4977E+01  0.1364E+02
   0.400  0.2403E+01  0.1366E+02
   0.410  0.1287E+01  0.1367E+02
   0.420  0.1891E+01  0.1369E+02
   0.430  0.9823E+00  0.1370E+02
   0.440  0.9550E+00  0.1371E+02
   0.450  0.5011E+00  0.1372E+02
   0.460  0.3812E+00  0.1372E+02
   0.470  0.1372E+01  0.1373E+02
   0.480  0.1622E+01  0.1375E+02
   0.490  0.1445E+01  0.1377E+02
   0.500  0.1922E+01  0.1378E+02
   0.510  0.1887E+01  0.1380E+02
   0.520  0.1974E+00  0.1381E+02
   0.530 -0.1588E+00  0.1380E+02
   0.540  0.7885E+00  0.1381E+02
   0.550  0.2242E+01  0.1383E+02
   0.560  0.1536E+01  0.1385E+02
   0.570 -0.1067E+00  0.1385E+02
   0.580 -0.1033E+00  0.1385E+02
   0.590  0.5977E+00  0.1385E+02
   0.600  0.1397E+01  0.1387E+02
   0.610  0.1396E+01  0.1388E+02
   0.620  0.1433E+01  0.1390E+02
   0.630  0.1315E+01  0.1391E+02
   0.640  0.7717E+00  0.1392E+02
   0.650  0.7631E+00  0.1392E+02
   0.660  0.1029E+01  0.1393E+02
   0.670  0.2135E+00  0.1394E+02
   0.680  0.3736E+00  0.1394E+02
   0.690  0.1179E+01  0.1395E+02
   0.700  0.6807E+00  0.1396E+02
   0.710  0.4050E+00  0.1396E+02
   0.720  0.1134E+01  0.1397E+02
   0.730  0.5936E+00  0.1398E+02
   0.740 -0.3178E-01  0.1398E+02
   0.750  0.7079E+00  0.1399E+02
   0.760  0.2075E+01  0.1401E+02
   0.770  0.1668E+01  0.1402E+02
   0.780  0.3987E+00  0.1403E+02
   0.790  0.9040E+00  0.1404E+02
   0.800  0.8366E+00  0.1405E+02
   0.810  0.1110E+00  0.1405E+02
   0.820  0.7103E+00  0.1405E+02
   0.830  0.1151E+01  0.1407E+02
   0.840  0.2371E+00  0.1407E+02
   0.850 -0.1243E+00  0.1407E+02
   0.860  0.2627E+00  0.1407E+02
   0.870  0.1054E+01  0.1408E+02
   0.880  0.9635E+00  0.1409E+02
   0.890  0.2387E+00  0.1409E+02
   0.900  0.1270E+01  0.1410E+02
   0.910  0.2364E+01  0.1413E+02
   0.920  0.7735E+00  0.1414E+02
   0.930 -0.2858E+00  0.1413E+02
   0.940 -0.2860E-01  0.1413E+02
   0.950  0.7352E+00  0.1414E+02
   0.960  0.2249E+01  0.1416E+02
   0.970  0.1671E+01  0.1418E+02
   0.980 -0.1119E+00  0.1418E+02
   0.990 -0.2057E+00  0.1418E+02
   1.000 -0.2440E-01  0.1418E+02
   1.010 -0.7569E-03  0.1418E+02
   1.020  0.8411E-03  0.1418E+02
   1.030  0.3144E-01  0.1418E+02
   1.040  0.3988E+00  0.1418E+02
   1.050  0.1813E+01  0.1420E+02
   1.060  0.3086E+01  0.1423E+02
   1.070  0.1695E+01  0.1425E+02
   1.080  0.9677E-01  0.1425E+02
   1.090  0.7653E+00  0.1425E+02
   1.100  0.9968E+00  0.1426E+02
   1.110  0.5852E-01  0.1427E+02
   1.120 -0.1304E+00  0.1426E+02
   1.130 -0.2100E-01  0.1426E+02
   1.140  0.1265E-01  0.1426E+02
   1.150  0.2479E+00  0.1427E+02
   1.160  0.1601E+01  0.1428E+02
   1.170  0.3816E+01  0.1432E+02
   1.180  0.3457E+01  0.1436E+02
   1.190  0.1905E+01  0.1437E+02
   1.200  0.2932E+01  0.1440E+02
   1.210  0.2619E+01  0.1443E+02
   1.220  0.2678E+01  0.1446E+02
   1.230  0.3631E+01  0.1449E+02
   1.240  0.1777E+01  0.1451E+02
   1.250 -0.1286E+00  0.1451E+02
   1.260  0.4155E+00  0.1451E+02
   1.270  0.2597E+01  0.1454E+02
   1.280  0.4563E+01  0.1458E+02
   1.290  0.3407E+01  0.1462E+02
   1.300  0.1380E+01  0.1463E+02
   1.310  0.6721E+00  0.1464E+02
   1.320  0.5530E-02  0.1464E+02
   1.330  0.6007E+00  0.1465E+02
   1.340  0.2879E+01  0.1467E+02
   1.350  0.3648E+01  0.1471E+02
   1.360  0.3245E+01  0.1474E+02
   1.370  0.4900E+01  0.1479E+02
   1.380  0.4055E+01  0.1483E+02
   1.390  0.2981E+01  0.1486E+02
   1.400  0.2728E+01  0.1489E+02
   1.410  0.2911E+01  0.1492E+02
   1.420  0.2465E+01  0.1494E+02
   1.430  0.7819E+00  0.1495E+02
   1.440  0.1022E+01  0.1496E+02
   1.450  0.2495E+01  0.1499E+02
   1.460  0.2115E+01  0.1501E+02
   1.470  0.1222E+01  0.1502E+02
   1.480  0.1427E+01  0.1503E+02
   1.490  0.1876E+01  0.1505E+02
   1.500  0.1826E+01  0.1507E+02
   1.510  0.2008E+01  0.1509E+02
   1.520  0.4086E+01  0.1513E+02
   1.530  0.7270E+01  0.1521E+02
   1.540  0.6884E+01  0.1527E+02
   1.550  0.3160E+01  0.1531E+02
   1.560  0.3298E+01  0.1534E+02
   1.570  0.4333E+01  0.1538E+02
   1.580  0.4905E+01  0.1543E+02
   1.590  0.3068E+01  0.1546E+02
   1.600  0.9731E+00  0.1547E+02
   1.610  0.1993E+01  0.1549E+02
   1.620  0.2132E+01  0.1551E+02
   1.630  0.3650E+01  0.1555E+02
   1.640  0.5722E+01  0.1561E+02
   1.650  0.6207E+01  0.1567E+02
   1.660  0.8223E+01  0.1575E+02
   1.670  0.6919E+01  0.1582E+02
   1.680  0.1833E+01  0.1584E+02
   1.690  0.8631E+00  0.1585E+02
   1.700  0.1999E+01  0.1587E+02
   1.710  0.5230E+00  0.1587E+02
   1.720 -0.2764E+00  0.1587E+02
   1.730  0.2018E+00  0.1587E+02
   1.740  0.1600E+01  0.1589E+02
   1.750  0.3147E+01  0.1592E+02
   1.760  0.3352E+01  0.1595E+02
   1.770  0.3018E+01  0.1598E+02
   1.780  0.1699E+01  0.1600E+02
   1.790  0.6458E+00  0.1601E+02
   1.800  0.7745E+00  0.1601E+02
   1.810  0.9512E+00  0.1602E+02
   1.820  0.3058E+00  0.1603E+02
   1.830  0.1914E+01  0.1605E+02
   1.840  0.6358E+01  0.1611E+02
   1.850  0.6989E+01  0.1618E+02
   1.860  0.3528E+01  0.1621E+02
   1.870  0.3996E+01  0.1625E+02
   1.880  0.3407E+01  0.1629E+02
   1.890  0.1872E+01  0.1631E+02
   1.900  0.2503E+01  0.1633E+02
   1.910  0.2239E+01  0.1635E+02
   1.920  0.8484E+00  0.1636E+02
   1.930  0.9313E+00  0.1637E+02
   1.940  0.5723E+00  0.1638E+02
   1.950  0.1091E+01  0.1639E+02
   1.960  0.2386E+01  0.1641E+02
   1.970  0.1314E+01  0.1643E+02
   1.980  0.1726E+01  0.1644E+02
   1.990  0.3382E+01  0.1648E+02
   2.000  0.1684E+01  0.1649E+02
   2.010  0.1174E+01  0.1651E+02
   2.020  0.2942E+01  0.1653E+02
   2.030  0.4034E+01  0.1658E+02
   2.040  0.3287E+01  0.1661E+02
   2.050  0.1651E+01  0.1662E+02
   2.060  0.8564E+00  0.1663E+02
   2.070  0.6375E+00  0.1664E+02
   2.080  0.2659E-02  0.1664E+02
   2.090  0.6747E+00  0.1665E+02
   2.100  0.2644E+01  0.1667E+02
   2.110  0.3207E+01  0.1670E+02
   2.120  0.1820E+01  0.1672E+02
   2.130  0.1339E+01  0.1674E+02
   2.140  0.1834E+01  0.1675E+02
   2.150  0.2138E+01  0.1678E+02
   2.160  0.2316E+01  0.1680E+02
   2.170  0.3394E+01  0.1683E+02
   2.180  0.3229E+01  0.1687E+02
   2.190  0.2163E+01  0.1689E+02
   2.200  0.2480E+01  0.1691E+02
   2.210  0.3795E+01  0.1695E+02
   2.220  0.4831E+01  0.1700E+02
   2.230  0.3377E+01  0.1703E+02
   2.240  0.3319E+01  0.1706E+02
   2.250  0.3139E+01  0.1710E+02
   2.260  0.2273E+01  0.1712E+02
   2.270  0.1376E+01  0.1713E+02
   2.280  0.1232E+01  0.1715E+02
   2.290  0.2203E+01  0.1717E+02
   2.300  0.5035E+01  0.1722E+02
   2.310  0.5331E+01  0.1727E+02
   2.320  0.4648E+01  0.1732E+02
   2.330  0.6241E+01  0.1738E+02
   2.340  0.1215E+02  0.1750E+02
   2.350  0.1846E+02  0.1769E+02
   2.360  0.1524E+02  0.1784E+02
   2.370  0.1087E+02  0.1795E+02
   2.380  0.6801E+01  0.1801E+02
   2.390  0.4694E+01  0.1806E+02
   2.400  0.7065E+01  0.1813E+02
   2.410  0.1323E+02  0.1826E+02
   2.420  0.9854E+01  0.1836E+02
   2.430  0.2493E+01  0.1839E+02
   2.440  0.1399E+01  0.1840E+02
   2.450  0.1493E+01  0.1842E+02
   2.460  0.1269E+01  0.1843E+02
   2.470  0.1075E+01  0.1844E+02
   2.480  0.7269E+00  0.1845E+02
   2.490  0.1053E+01  0.1846E+02
   2.500  0.5522E+00  0.1846E+02
   2.510  0.2507E+00  0.1847E+02
   2.520  0.2040E+01  0.1849E+02
   2.530  0.3996E+01  0.1853E+02
   2.540  0.2584E+01  0.1855E+02
   2.550  0.1018E+00  0.1855E+02
   2.560 -0.3038E+00  0.1855E+02
   2.570  0.3099E+00  0.1855E+02
   2.580  0.1131E+01  0.1856E+02
   2.590  0.8213E+00  0.1857E+02
   2.600 -0.6426E-01  0.1857E+02
   2.610 -0.1008E+00  0.1857E+02
   2.620 -0.1151E-01  0.1857E+02
   2.630  0.3302E-02  0.1857E+02
   2.640  0.8774E-01  0.1857E+02
   2.650  0.7060E+00  0.1858E+02
   2.660  0.1933E+01  0.1860E+02
   2.670  0.1723E+01  0.1862E+02
   2.680  0.2126E+00  0.1862E+02
   2.690 -0.2158E+00  0.1862E+02
   2.700 -0.5181E-01  0.1862E+02
   2.710 -0.1627E-02  0.1862E+02
   2.720  0.4218E-01  0.1862E+02
   2.730  0.4048E+00  0.1862E+02
   2.740  0.1156E+01  0.1863E+02
   2.750  0.8736E+00  0.1864E+02
   2.760  0.6002E+00  0.1865E+02
   2.770  0.1739E+01  0.1866E+02
   2.780  0.2619E+01  0.1869E+02
   2.790  0.3418E+01  0.1872E+02
   2.800  0.6017E+01  0.1878E+02
   2.810  0.1412E+02  0.1893E+02
   2.820  0.1596E+02  0.1908E+02
   2.830  0.6982E+01  0.1915E+02
   2.840  0.3039E+01  0.1919E+02
   2.850  0.6344E+01  0.1925E+02
   2.860  0.5887E+01  0.1931E+02
   2.870  0.2530E+01  0.1933E+02
   2.880  0.3930E+01  0.1937E+02
   2.890  0.5010E+01  0.1942E+02
   2.900  0.4959E+01  0.1947E+02
   2.910  0.3046E+01  0.1950E+02
   2.920  0.1989E+01  0.1952E+02
   2.930  0.3509E+01  0.1956E+02
   2.940  0.5132E+01  0.1961E+02
   2.950  0.7943E+01  0.1969E+02
   2.960  0.9243E+01  0.1978E+02
   2.970  0.4908E+01  0.1983E+02
   2.980  0.3305E+01  0.1986E+02
   2.990  0.3718E+01  0.1990E+02
   3.000  0.5749E+01  0.1996E+02
   3.010  0.6320E+01  0.2002E+02
   3.020  0.5663E+01  0.2008E+02
   3.030  0.5095E+01  0.2013E+02
   3.040  0.1963E+01  0.2015E+02
   3.050  0.6844E+00  0.2015E+02
   3.060  0.8554E+00  0.2016E+02
   3.070  0.1060E+01  0.2017E+02
   3.080  0.5549E+00  0.2018E+02
   3.090  0.7862E+00  0.2019E+02
   3.100  0.2276E+01  0.2021E+02
   3.110  0.1507E+01  0.2022E+02
   3.120  0.5325E+00  0.2023E+02
   3.130  0.1035E+01  0.2024E+02
   3.140  0.4170E+00  0.2024E+02
   3.150  0.6722E+00  0.2025E+02
   3.160  0.2663E+01  0.2028E+02
   3.170  0.2886E+01  0.2031E+02
   3.180  0.5331E+00  0.2031E+02
   3.190 -0.3401E+00  0.2031E+02
   3.200  0.3069E-01  0.2031E+02
   3.210  0.7450E+00  0.2032E+02
   3.220  0.1346E+01  0.2033E+02
   3.230  0.1125E+01  0.2034E+02
   3.240  0.1154E+01  0.2035E+02
   3.250  0.9660E+00  0.2036E+02
   3.260  0.1042E+01  0.2037E+02
   3.270  0.3381E+00  0.2038E+02
   3.280  0.4322E+00  0.2038E+02
   3.290  0.1761E+01  0.2040E+02
   3.300  0.1855E+01  0.2042E+02
   3.310  0.3745E+00  0.2042E+02
   3.320 -0.2205E+00  0.2042E+02
   3.330 -0.4961E-01  0.2042E+02
   3.340  0.3007E+00  0.2042E+02
   3.350  0.1698E+01  0.2044E+02
   3.360  0.3386E+01  0.2047E+02
   3.370  0.2981E+01  0.2050E+02
   3.380  0.2363E+01  0.2053E+02
   3.390  0.5116E+01  0.2058E+02
   3.400  0.9333E+01  0.2067E+02
   3.410  0.7670E+01  0.2075E+02
   3.420  0.3588E+01  0.2078E+02
   3.430  0.3545E+01  0.2082E+02
   3.440  0.6070E+01  0.2088E+02
   3.450  0.5496E+01  0.2093E+02
   3.460  0.1855E+01  0.2095E+02
   3.470  0.2439E+01  0.2098E+02
   3.480  0.5360E+01  0.2103E+02
   3.490  0.5469E+01  0.2108E+02
   3.500  0.6161E+01  0.2115E+02
   3.510  0.6151E+01  0.2121E+02
   3.520  0.4765E+01  0.2126E+02
   3.530  0.5501E+01  0.2131E+02
   3.540  0.5659E+01  0.2137E+02
   3.550  0.5425E+01  0.2142E+02
   3.560  0.4166E+01  0.2146E+02
   3.570  0.4335E+01  0.2151E+02
   3.580  0.5482E+01  0.2156E+02
   3.590  0.4650E+01  0.2161E+02
   3.600  0.4900E+01  0.2166E+02
   3.610  0.5586E+01  0.2171E+02
   3.620  0.6024E+01  0.2177E+02
   3.630  0.5245E+01  0.2183E+02
   3.640  0.4145E+01  0.2187E+02
   3.650  0.5742E+01  0.2192E+02
   3.660  0.5096E+01  0.2197E+02
   3.670  0.3080E+01  0.2201E+02
   3.680  0.1367E+01  0.2202E+02
   3.690  0.2189E+01  0.2204E+02
   3.700  0.3222E+01  0.2207E+02
   3.710  0.2888E+01  0.2210E+02
   3.720  0.2429E+01  0.2213E+02
   3.730  0.3375E+01  0.2216E+02
   3.740  0.4349E+01  0.2220E+02
   3.750  0.8200E+01  0.2229E+02
   3.760  0.1498E+02  0.2244E+02
   3.770  0.1173E+02  0.2255E+02
   3.780  0.1372E+01  0.2257E+02
   3.790 -0.1268E+01  0.2255E+02
   3.800 -0.1316E+00  0.2255E+02
   3.810  0.1330E+01  0.2257E+02
   3.820  0.2570E+01  0.2259E+02
   3.830  0.2376E+01  0.2262E+02
   3.840  0.1870E+01  0.2263E+02
   3.850  0.9374E+00  0.2264E+02
   3.860  0.1339E+01  0.2266E+02
   3.870  0.2259E+01  0.2268E+02
   3.880  0.5701E+00  0.2269E+02
   3.890 -0.2894E+00  0.2268E+02
   3.900  0.1272E+00  0.2268E+02
   3.910  0.9508E+00  0.2269E+02
   3.920  0.1565E+01  0.2271E+02
   3.930  0.2297E+01  0.2273E+02
   3.940  0.3229E+01  0.2276E+02
   3.950  0.2505E+01  0.2279E+02
   3.960  0.3067E+01  0.2282E+02
   3.970  0.2219E+01  0.2284E+02
   3.980  0.1151E+01  0.2285E+02
   3.990  0.3057E+01  0.2288E+02
   4.000  0.2406E+01  0.2291E+02
   4.010  0.1238E+01  0.2292E+02
   4.020  0.2817E+01  0.2295E+02
   4.030  0.2202E+01  0.2297E+02
   4.040  0.8108E+00  0.2298E+02
   4.050  0.2003E+01  0.2300E+02
   4.060  0.2481E+01  0.2302E+02
   4.070  0.1166E+01  0.2304E+02
   4.080 -0.7193E-02  0.2304E+02
   4.090 -0.1801E+00  0.2303E+02
   4.100  0.2950E-01  0.2303E+02
   4.110  0.5427E+00  0.2304E+02
   4.120  0.1556E+01  0.2305E+02
   4.130  0.1739E+01  0.2307E+02
   4.140  0.8303E+00  0.2308E+02
   4.150  0.5870E+00  0.2309E+02
   4.160  0.2125E+01  0.2311E+02
   4.170  0.3826E+01  0.2315E+02
   4.180  0.3677E+01  0.2318E+02
   4.190  0.1382E+01  0.2320E+02
   4.200  0.9569E+00  0.2321E+02
   4.210  0.1788E+01  0.2322E+02
   4.220  0.9912E+00  0.2323E+02
   4.230  0.2798E+00  0.2324E+02
   4.240  0.1146E+01  0.2325E+02
   4.250  0.1828E+01  0.2327E+02
   4.260  0.2038E+01  0.2329E+02
   4.270  0.1280E+01  0.2330E+02
   4.280  0.3537E+00  0.2330E+02
   4.290  0.1604E+01  0.2332E+02
   4.300  0.2217E+01  0.2334E+02
   4.310  0.5161E+00  0.2335E+02
   4.320  0.8101E+00  0.2335E+02
   4.330  0.2013E+01  0.2337E+02
   4.340  0.1299E+01  0.2339E+02
   4.350  0.5616E+00  0.2339E+02
   4.360  0.1927E+01  0.2341E+02
   4.370  0.2283E+01  0.2344E+02
   4.380  0.2305E+01  0.2346E+02
   4.390  0.3980E+01  0.2350E+02
   4.400  0.2598E+01  0.2352E+02
   4.410  0.1330E+01  0.2354E+02
   4.420  0.2995E+01  0.2357E+02
   4.430  0.3359E+01  0.2360E+02
   4.440  0.3402E+01  0.2363E+02
   4.450  0.2978E+01  0.2366E+02
   4.460  0.1073E+01  0.2368E+02
   4.470  0.4201E+00  0.2368E+02
   4.480  0.1076E+01  0.2369E+02
   4.490  0.8579E+00  0.2370E+02
   4.500  0.1387E+01  0.2371E+02
   4.510  0.2149E+01  0.2373E+02
   4.520  0.1891E+01  0.2375E+02
   4.530  0.1732E+01  0.2377E+02
   4.540  0.1214E+01  0.2378E+02
   4.550  0.7594E+00  0.2379E+02
   4.560  0.1618E+01  0.2381E+02
   4.570  0.2283E+01  0.2383E+02
   4.580  0.2635E+01  0.2386E+02
   4.590  0.2704E+01  0.2388E+02
   4.600  0.1192E+01  0.2389E+02
   4.610 -0.2270E+00  0.2389E+02
   4.620  0.2610E+00  0.2389E+02
   4.630  0.2816E+01  0.2392E+02
   4.640  0.6721E+01  0.2399E+02
   4.650  0.5910E+01  0.2405E+02
   4.660  0.2629E+01  0.2408E+02
   4.670  0.2679E+01  0.2410E+02
   4.680  0.2817E+01  0.2413E+02
   4.690  0.2087E+01  0.2415E+02
   4.700  0.2076E+01  0.2417E+02
   4.710  0.2137E+01  0.2419E+02
   4.720  0.1738E+01  0.2421E+02
   4.730  0.1643E+01  0.2423E+02
   4.740  0.1384E+01  0.2424E+02
   4.750  0.7050E+00  0.2425E+02
   4.760  0.1833E+01  0.2427E+02
   4.770  0.3921E+01  0.2431E+02
   4.780  0.3102E+01  0.2434E+02
   4.790  0.2261E+01  0.2436E+02
   4.800  0.3063E+01  0.2439E+02
   4.810  0.1100E+01  0.2440E+02
   4.820 -0.1592E+00  0.2440E+02
   4.830  0.1107E+01  0.2441E+02
   4.840  0.3162E+01  0.2444E+02
   4.850  0.4154E+01  0.2448E+02
   4.860  0.4157E+01  0.2453E+02
   4.870  0.4539E+01  0.2457E+02
   4.880  0.3243E+01  0.2460E+02
   4.890  0.2355E+01  0.2463E+02
   4.900  0.1978E+01  0.2465E+02
   4.910  0.1819E+01  0.2466E+02
   4.920  0.2429E+01  0.2469E+02
   4.930  0.2177E+01  0.2471E+02
   4.940  0.2422E+01  0.2474E+02
   4.950  0.2702E+01  0.2476E+02
   4.960  0.1138E+01  0.2477E+02
   4.970 -0.2183E+00  0.2477E+02
   4.980 -0.1210E+00  0.2477E+02
   4.990  0.6007E+00  0.2478E+02
   5.000  0.2198E+01  0.2480E+02
   5.010  0.2665E+01  0.2482E+02
   5.020  0.3432E+01  0.2486E+02
   5.030  0.5317E+01  0.2491E+02
   5.040  0.3356E+01  0.2495E+02
   5.050  0.1923E+01  0.2496E+02
   5.060  0.9919E+00  0.2497E+02
   5.070  0.7709E+00  0.2498E+02
   5.080  0.1056E+01  0.2499E+02
   5.090  0.9985E+00  0.2500E+02
   5.100  0.1457E+01  0.2502E+02
   5.110  0.2710E+01  0.2504E+02
   5.120  0.4339E+01  0.2509E+02
   5.130  0.3012E+01  0.2512E+02
   5.140  0.3356E+01  0.2515E+02
   5.150  0.4458E+01  0.2520E+02
   5.160  0.4067E+01  0.2524E+02
   5.170  0.4454E+01  0.2528E+02
   5.180  0.2547E+01  0.2531E+02
   5.190  0.7082E+00  0.2531E+02
   5.200  0.7239E+00  0.2532E+02
   5.210  0.8620E+00  0.2533E+02
   5.220  0.2483E+01  0.2535E+02
   5.230  0.2540E+01  0.2538E+02
   5.240  0.1176E+01  0.2539E+02
   5.250  0.1939E+01  0.2541E+02
   5.260  0.3681E+01  0.2545E+02
   5.270  0.3310E+01  0.2548E+02
   5.280  0.3573E+01  0.2552E+02
   5.290  0.2656E+01  0.2554E+02
   5.300  0.1983E+01  0.2556E+02
   5.310  0.1932E+01  0.2558E+02
   5.320  0.1934E+01  0.2560E+02
   5.330  0.1494E+01  0.2562E+02
   5.340  0.1215E+01  0.2563E+02
   5.350  0.1096E+01  0.2564E+02
   5.360  0.9509E+00  0.2565E+02
   5.370  0.6032E+00  0.2566E+02
   5.380  0.2580E+01  0.2568E+02
   5.390  0.4976E+01  0.2573E+02
   5.400  0.4278E+01  0.2577E+02
   5.410  0.3180E+01  0.2581E+02
   5.420  0.3314E+01  0.2584E+02
   5.430  0.4687E+01  0.2589E+02
   5.440  0.4249E+01  0.2593E+02
   5.450  0.2450E+01  0.2595E+02
   5.460  0.3234E+01  0.2599E+02
   5.470  0.4100E+01  0.2603E+02
   5.480  0.3356E+01  0.2606E+02
   5.490  0.2679E+01  0.2609E+02
   5.500  0.7987E+00  0.2609E+02
   5.510  0.7294E+00  0.2610E+02
   5.520  0.2262E+01  0.2612E+02
   5.530  0.1173E+01  0.2614E+02
   5.540  0.1802E+00  0.2614E+02
   5.550  0.2120E+01  0.2616E+02
   5.560  0.4407E+01  0.2620E+02
   5.570  0.3160E+01  0.2623E+02
   5.580  0.2560E+01  0.2626E+02
   5.590  0.2721E+01  0.2629E+02
   5.600  0.6543E+00  0.2629E+02
   5.610  0.1222E+01  0.2631E+02
   5.620  0.2193E+01  0.2633E+02
   5.630  0.1406E+01  0.2634E+02
   5.640  0.2504E+01  0.2637E+02
   5.650  0.2964E+01  0.2640E+02
   5.660  0.1842E+01  0.2642E+02
   5.670  0.3201E+01  0.2645E+02
   5.680  0.3354E+01  0.2648E+02
   5.690  0.1259E+01  0.2649E+02
   5.700  0.1202E+01  0.2651E+02
   5.710  0.2102E+01  0.2653E+02
   5.720  0.1726E+01  0.2654E+02
   5.730  0.1517E+01  0.2656E+02
   5.740  0.1603E+01  0.2658E+02
   5.750  0.2426E+01  0.2660E+02
   5.760  0.3244E+01  0.2663E+02
   5.770  0.1537E+01  0.2665E+02
   5.780  0.1179E+01  0.2666E+02
   5.790  0.1994E+01  0.2668E+02
   5.800  0.1664E+01  0.2670E+02
   5.810  0.1630E+01  0.2671E+02
   5.820  0.2875E+01  0.2674E+02
   5.830  0.4011E+01  0.2678E+02
   5.840  0.3659E+01  0.2682E+02
   5.850  0.3905E+01  0.2686E+02
   5.860  0.4469E+01  0.2690E+02
   5.870  0.4854E+01  0.2695E+02
   5.880  0.4117E+01  0.2699E+02
   5.890  0.3553E+01  0.2703E+02
   5.900  0.4027E+01  0.2707E+02
   5.910  0.2942E+01  0.2710E+02
   5.920  0.2877E+01  0.2712E+02
   5.930  0.3853E+01  0.2716E+02
   5.940  0.3707E+01  0.2720E+02
   5.950  0.3383E+01  0.2723E+02
   5.960  0.2972E+01  0.2726E+02
   5.970  0.3719E+01  0.2730E+02
   5.980  0.4215E+01  0.2734E+02
   5.990  0.3668E+01  0.2738E+02
   6.000  0.1845E+01  0.2740E+02
   6.010  0.1672E+01  0.2742E+02
   6.020  0.2256E+01  0.2744E+02
   6.030  0.2154E+01  0.2746E+02
   6.040  0.1818E+01  0.2748E+02
   6.050  0.2013E+01  0.2750E+02
   6.060  0.4374E+01  0.2754E+02
   6.070  0.4501E+01  0.2759E+02
   6.080  0.3151E+01  0.2762E+02
   6.090  0.3012E+01  0.2765E+02
   6.100  0.4387E+01  0.2769E+02
   6.110  0.5052E+01  0.2774E+02
   6.120  0.4984E+01  0.2779E+02
   6.130  0.4598E+01  0.2784E+02
   6.140  0.4080E+01  0.2788E+02
   6.150  0.5544E+01  0.2793E+02
   6.160  0.7512E+01  0.2801E+02
   6.170  0.4357E+01  0.2805E+02
   6.180  0.2055E+01  0.2807E+02
   6.190  0.2273E+01  0.2810E+02
   6.200  0.2863E+01  0.2812E+02
   6.210  0.3873E+01  0.2816E+02
   6.220  0.4948E+01  0.2821E+02
   6.230  0.7183E+01  0.2829E+02
   6.240  0.7031E+01  0.2836E+02
   6.250  0.6406E+01  0.2842E+02
   6.260  0.9539E+01  0.2851E+02
   6.270  0.1264E+02  0.2864E+02
   6.280  0.8331E+01  0.2872E+02
   6.290  0.3325E+01  0.2876E+02
   6.300  0.5952E+01  0.2882E+02
   6.310  0.8804E+01  0.2891E+02
   6.320  0.7905E+01  0.2898E+02
   6.330  0.4354E+01  0.2903E+02
   6.340  0.2957E+01  0.2906E+02
   6.350  0.6562E+01  0.2912E+02
   6.360  0.8371E+01  0.2921E+02
   6.370  0.7834E+01  0.2929E+02
   6.380  0.6223E+01  0.2935E+02
   6.390  0.4501E+01  0.2939E+02
   6.400  0.2760E+01  0.2942E+02
   6.410  0.1728E+01  0.2944E+02
   6.420  0.1919E+01  0.2946E+02
   6.430  0.3165E+01  0.2949E+02
   6.440  0.6908E+01  0.2956E+02
   6.450  0.8067E+01  0.2964E+02
   6.460  0.4830E+01  0.2969E+02
   6.470  0.6352E+01  0.2975E+02
   6.480  0.7577E+01  0.2983E+02
   6.490  0.4005E+01  0.2987E+02
   6.500  0.3373E+01  0.2990E+02
   6.510  0.3349E+01  0.2993E+02
   6.520  0.2428E+01  0.2996E+02
   6.530  0.4426E+01  0.3000E+02
   6.540  0.4846E+01  0.3005E+02
   6.550  0.2844E+01  0.3008E+02
   6.560  0.4036E+01  0.3012E+02
   6.570  0.5620E+01  0.3017E+02
   6.580  0.3589E+01  0.3021E+02
   6.590  0.2537E+01  0.3024E+02
   6.600  0.3964E+01  0.3028E+02
   6.610  0.5446E+01  0.3033E+02
   6.620  0.6500E+01  0.3040E+02
   6.630  0.5821E+01  0.3045E+02
   6.640  0.4882E+01  0.3050E+02
   6.650  0.4138E+01  0.3054E+02
   6.660  0.5225E+01  0.3060E+02
   6.670  0.7882E+01  0.3067E+02
   6.680  0.7942E+01  0.3075E+02
   6.690  0.3612E+01  0.3079E+02
   6.700  0.2480E+01  0.3081E+02
   6.710  0.3300E+01  0.3085E+02
   6.720  0.4407E+01  0.3089E+02
   6.730  0.3583E+01  0.3093E+02
   6.740  0.2065E+01  0.3095E+02
   6.750  0.3970E+01  0.3099E+02
   6.760  0.5275E+01  0.3104E+02
   6.770  0.7003E+01  0.3111E+02
   6.780  0.6612E+01  0.3118E+02
   6.790  0.3175E+01  0.3121E+02
   6.800  0.3474E+01  0.3124E+02
   6.810  0.5783E+01  0.3130E+02
   6.820  0.5791E+01  0.3136E+02
   6.830  0.5435E+01  0.3141E+02
   6.840  0.5249E+01  0.3147E+02
   6.850  0.6215E+01  0.3153E+02
   6.860  0.7093E+01  0.3160E+02
   6.870  0.5498E+01  0.3165E+02
   6.880  0.5122E+01  0.3171E+02
   6.890  0.6004E+01  0.3177E+02
   6.900  0.3529E+01  0.3180E+02
   6.910  0.3313E+01  0.3183E+02
   6.920  0.3552E+01  0.3187E+02
   6.930  0.1042E+01  0.3188E+02
   6.940  0.2081E+01  0.3190E+02
   6.950  0.3771E+01  0.3194E+02
   6.960  0.2323E+01  0.3196E+02
   6.970  0.2148E+01  0.3198E+02
   6.980  0.2296E+01  0.3201E+02
   6.990  0.2615E+01  0.3203E+02
   7.000  0.3349E+01  0.3207E+02
   7.010  0.5063E+01  0.3212E+02
   7.020  0.8177E+01  0.3220E+02
   7.030  0.7901E+01  0.3228E+02
   7.040  0.6093E+01  0.3234E+02
   7.050  0.7438E+01  0.3241E+02
   7.060  0.7402E+01  0.3249E+02
   7.070  0.3085E+01  0.3252E+02
   7.080 -0.1068E+00  0.3252E+02
   7.090  0.1033E+01  0.3253E+02
   7.100  0.1828E+01  0.3254E+02
   7.110  0.1065E+01  0.3256E+02
   7.120  0.1043E+01  0.3257E+02
   7.130  0.1641E+01  0.3258E+02
   7.140  0.1458E+01  0.3260E+02
   7.150  0.1663E+01  0.3261E+02
   7.160  0.2203E+01  0.3264E+02
   7.170  0.7147E+00  0.3264E+02
   7.180  0.4135E+00  0.3265E+02
   7.190  0.1117E+01  0.3266E+02
   7.200  0.3613E+00  0.3266E+02
   7.210  0.5031E-01  0.3266E+02
   7.220  0.1359E+01  0.3268E+02
   7.230  0.3614E+01  0.3271E+02
   7.240  0.3697E+01  0.3275E+02
   7.250  0.2330E+01  0.3277E+02
   7.260  0.1957E+01  0.3279E+02
   7.270  0.4308E+00  0.3280E+02
   7.280  0.3869E+00  0.3280E+02
   7.290  0.2301E+01  0.3282E+02
   7.300  0.2858E+01  0.3285E+02
   7.310  0.1062E+01  0.3286E+02
   7.320  0.3063E+00  0.3286E+02
   7.330  0.1379E+01  0.3288E+02
   7.340  0.2428E+01  0.3290E+02
   7.350  0.3292E+01  0.3294E+02
   7.360  0.1797E+01  0.3295E+02
   7.370  0.7575E+00  0.3296E+02
   7.380  0.7184E+00  0.3297E+02
   7.390 -0.3393E-01  0.3297E+02
   7.400 -0.7257E-01  0.3297E+02
   7.410  0.4206E+00  0.3297E+02
   7.420  0.1507E+01  0.3299E+02
   7.430  0.1904E+01  0.3301E+02
   7.440  0.7950E+00  0.3301E+02
   7.450  0.8062E-01  0.3301E+02
   7.460  0.8926E+00  0.3302E+02
   7.470  0.1642E+01  0.3304E+02
   7.480  0.2215E+01  0.3306E+02
   7.490  0.2900E+01  0.3309E+02
   7.500  0.1257E+01  0.3310E+02
   7.510 -0.2884E+00  0.3310E+02
   7.520 -0.6918E-01  0.3310E+02
   7.530  0.6701E+00  0.3311E+02
   7.540  0.1373E+01  0.3312E+02
   7.550  0.1381E+01  0.3313E+02
   7.560  0.2070E+01  0.3316E+02
   7.570  0.2347E+01  0.3318E+02
   7.580  0.2185E+01  0.3320E+02
   7.590  0.3236E+01  0.3323E+02
   7.600  0.3802E+01  0.3327E+02
   7.610  0.2949E+01  0.3330E+02
   7.620  0.1786E+01  0.3332E+02
   7.630  0.7325E+00  0.3333E+02
   7.640  0.1069E+01  0.3334E+02
   7.650  0.1719E+01  0.3335E+02
   7.660  0.1080E+01  0.3336E+02
   7.670  0.3740E-01  0.3336E+02
   7.680 -0.3345E-01  0.3336E+02
   7.690  0.9105E+00  0.3337E+02
   7.700  0.2368E+01  0.3340E+02
   7.710  0.2378E+01  0.3342E+02
   7.720  0.2559E+01  0.3345E+02
   7.730  0.3177E+01  0.3348E+02
   7.740  0.2035E+01  0.3350E+02
   7.750  0.6065E+00  0.3350E+02
   7.760  0.1835E+01  0.3352E+02
   7.770  0.1838E+01  0.3354E+02
   7.780  0.1517E+00  0.3354E+02
   7.790  0.8091E+00  0.3355E+02
   7.800  0.2197E+01  0.3357E+02
   7.810  0.1502E+01  0.3359E+02
   7.820  0.8973E+00  0.3360E+02
   7.830  0.1505E+01  0.3361E+02
   7.840  0.1562E+01  0.3363E+02
   7.850  0.1660E+01  0.3364E+02
   7.860  0.1952E+01  0.3366E+02
   7.870  0.9923E+00  0.3367E+02
   7.880  0.2213E+00  0.3368E+02
   7.890  0.1579E+01  0.3369E+02
   7.900  0.3124E+01  0.3372E+02
   7.910  0.2886E+01  0.3375E+02
   7.920  0.1761E+01  0.3377E+02
   7.930  0.1834E+01  0.3379E+02
   7.940  0.3644E+01  0.3382E+02
   7.950  0.4240E+01  0.3387E+02
   7.960  0.2470E+01  0.3389E+02
   7.970  0.3182E+01  0.3392E+02
   7.980  0.3773E+01  0.3396E+02
   7.990  0.2085E+01  0.3398E+02
   8.000  0.2183E-01  0.3398E+02
   8.010 -0.3159E+00  0.3398E+02
   8.020 -0.5992E-01  0.3398E+02
   8.030 -0.2954E-02  0.3398E+02
   8.040  0.2756E-02  0.3398E+02
   8.050  0.6917E-01  0.3398E+02
   8.060  0.5372E+00  0.3398E+02
   8.070  0.1249E+01  0.3400E+02
   8.080  0.9749E+00  0.3401E+02
   8.090  0.1010E+01  0.3402E+02
   8.100  0.7517E+00  0.3402E+02
   8.110  0.1709E+00  0.3403E+02
   8.120  0.1341E+01  0.3404E+02
   8.130  0.2386E+01  0.3406E+02
   8.140  0.7001E+00  0.3407E+02
   8.150 -0.2762E+00  0.3407E+02
   8.160  0.2616E+00  0.3407E+02
   8.170  0.1887E+01  0.3409E+02
   8.180  0.3911E+01  0.3413E+02
   8.190  0.2886E+01  0.3416E+02
   8.200  0.1956E+00  0.3416E+02
   8.210 -0.1140E+00  0.3416E+02
   8.220  0.9247E+00  0.3417E+02
   8.230  0.1014E+01  0.3418E+02
   8.240  0.1085E+00  0.3418E+02
   8.250  0.3576E+00  0.3418E+02
   8.260  0.1175E+01  0.3419E+02
   8.270  0.6585E+00  0.3420E+02
   8.280 -0.1156E+00  0.3420E+02
   8.290 -0.8002E-01  0.3420E+02
   8.300 -0.5260E-02  0.3420E+02
   8.310  0.5622E-01  0.3420E+02
   8.320  0.4793E+00  0.3420E+02
   8.330  0.1234E+01  0.3422E+02
   8.340  0.1225E+01  0.3423E+02
   8.350  0.2576E+01  0.3425E+02
   8.360  0.4681E+01  0.3430E+02
   8.370  0.2875E+01  0.3433E+02
   8.380  0.4698E+00  0.3433E+02
   8.390 -0.8715E-01  0.3433E+02
   8.400  0.1168E+01  0.3434E+02
   8.410  0.3446E+01  0.3438E+02
   8.420  0.3267E+01  0.3441E+02
   8.430  0.1727E+01  0.3443E+02
   8.440  0.1304E+01  0.3444E+02
   8.450  0.1221E+01  0.3445E+02
   8.460  0.1322E+01  0.3447E+02
   8.470  0.1960E+01  0.3449E+02
   8.480  0.2523E+01  0.3451E+02
   8.490  0.2050E+01  0.3453E+02
   8.500  0.1760E+01  0.3455E+02
   8.510  0.5073E+00  0.3456E+02
   8.520  0.7606E+00  0.3456E+02
   8.530  0.1001E+01  0.3457E+02
   8.540  0.7407E+00  0.3458E+02
   8.550  0.2883E+01  0.3461E+02
   8.560  0.4225E+01  0.3465E+02
   8.570  0.1804E+01  0.3467E+02
   8.580  0.1311E+01  0.3468E+02
   8.590  0.2058E+01  0.3470E+02
   8.600  0.4453E+00  0.3471E+02
   8.610  0.4344E+00  0.3471E+02
   8.620  0.2029E+01  0.3473E+02
   8.630  0.2184E+01  0.3475E+02
   8.640  0.2879E+01  0.3478E+02
   8.650  0.5446E+01  0.3484E+02
   8.660  0.4343E+01  0.3488E+02
   8.670  0.2530E+01  0.3491E+02
   8.680  0.2334E+01  0.3493E+02
   8.690  0.2128E+01  0.3495E+02
   8.700  0.2025E+01  0.3497E+02
   8.710  0.1058E+01  0.3498E+02
   8.720  0.1092E+01  0.3499E+02
   8.730  0.1748E+01  0.3501E+02
   8.740  0.3244E+01  0.3504E+02
   8.750  0.1860E+01  0.3506E+02
   8.760  0.4924E+00  0.3507E+02
   8.770  0.1671E+01  0.3508E+02
   8.780  0.1692E+01  0.3510E+02
   8.790  0.7273E+00  0.3511E+02
   8.800  0.1032E+01  0.3512E+02
   8.810  0.1057E+01  0.3513E+02
   8.820  0.1222E+01  0.3514E+02
   8.830  0.1506E+01  0.3516E+02
   8.840  0.1125E+01  0.3517E+02
   8.850  0.8466E+00  0.3517E+02
   8.860  0.2357E+01  0.3520E+02
   8.870  0.4091E+01  0.3524E+02
   8.880  0.4771E+01  0.3529E+02
   8.890  0.3487E+01  0.3532E+02
   8.900  0.3585E+01  0.3536E+02
   8.910  0.3966E+01  0.3540E+02
   8.920  0.3033E+01  0.3543E+02
   8.930  0.2272E+01  0.3545E+02
   8.940  0.1412E+01  0.3546E+02
   8.950  0.3106E+01  0.3550E+02
   8.960  0.5573E+01  0.3555E+02
   8.970  0.4061E+01  0.3559E+02
   8.980  0.1798E+01  0.3561E+02
   8.990  0.2695E+01  0.3564E+02
   9.000  0.3025E+01  0.3567E+02
   9.010  0.3289E+01  0.3570E+02
   9.020  0.1891E+01  0.3572E+02
   9.030  0.2984E+00  0.3572E+02
   9.040  0.9641E+00  0.3573E+02
   9.050  0.1607E+01  0.3575E+02
   9.060  0.2730E+01  0.3577E+02
   9.070  0.2937E+01  0.3580E+02
   9.080  0.1489E+01  0.3582E+02
   9.090  0.7168E+00  0.3583E+02
   9.100  0.1567E+00  0.3583E+02
   9.110  0.1130E+01  0.3584E+02
   9.120  0.2936E+01  0.3587E+02
   9.130  0.2394E+01  0.3589E+02
   9.140  0.1529E+00  0.3589E+02
   9.150 -0.6317E-02  0.3589E+02
   9.160  0.1622E+01  0.3591E+02
   9.170  0.3325E+01  0.3594E+02
   9.180  0.2523E+01  0.3597E+02
   9.190  0.2073E+01  0.3599E+02
   9.200  0.2725E+01  0.3602E+02
   9.210  0.1628E+01  0.3603E+02
   9.220  0.2433E+01  0.3606E+02
   9.230  0.3997E+01  0.3610E+02
   9.240  0.1810E+01  0.3612E+02
   9.250  0.2221E+00  0.3612E+02
   9.260  0.1755E+01  0.3614E+02
   9.270  0.3434E+01  0.3617E+02
   9.280  0.3769E+01  0.3621E+02
   9.290  0.3148E+01  0.3624E+02
   9.300  0.1455E+01  0.3625E+02
   9.310  0.1530E+01  0.3627E+02
   9.320  0.1752E+01  0.3629E+02
   9.330  0.4363E+00  0.3629E+02
   9.340  0.5867E+00  0.3630E+02
   9.350  0.1224E+01  0.3631E+02
   9.360  0.9483E+00  0.3632E+02
   9.370  0.1056E+01  0.3633E+02
   9.380  0.3412E+00  0.3633E+02
   9.390  0.1159E+00  0.3633E+02
   9.400  0.9713E+00  0.3634E+02
   9.410  0.9948E+00  0.3635E+02
   9.420  0.3576E-01  0.3635E+02
   9.430 -0.1194E+00  0.3635E+02
   9.440  0.1249E+00  0.3635E+02
   9.450  0.1043E+01  0.3636E+02
   9.460  0.2330E+01  0.3639E+02
   9.470  0.1246E+01  0.3640E+02
   9.480 -0.1534E+00  0.3640E+02
   9.490  0.4143E+00  0.3640E+02
   9.500  0.2262E+01  0.3642E+02
   9.510  0.3047E+01  0.3646E+02
   9.520  0.1104E+01  0.3647E+02
   9.530  0.4124E-01  0.3647E+02
   9.540  0.1458E+01  0.3648E+02
   9.550  0.2702E+01  0.3651E+02
   9.560  0.1865E+01  0.3653E+02
   9.570  0.1853E+01  0.3655E+02
   9.580  0.2201E+01  0.3657E+02
   9.590  0.8121E+00  0.3658E+02
   9.600 -0.1446E+00  0.3657E+02
   9.610  0.6248E+00  0.3658E+02
   9.620  0.1709E+01  0.3660E+02
   9.630  0.2725E+01  0.3662E+02
   9.640  0.3545E+01  0.3666E+02
   9.650  0.2643E+01  0.3669E+02
   9.660  0.3090E+01  0.3672E+02
   9.670  0.3479E+01  0.3675E+02
   9.680  0.1532E+01  0.3677E+02
   9.690  0.7325E+00  0.3677E+02
   9.700  0.9277E+00  0.3678E+02
   9.710  0.1219E+01  0.3680E+02
   9.720  0.2226E+01  0.3682E+02
   9.730  0.4312E+01  0.3686E+02
   9.740  0.3650E+01  0.3690E+02
   9.750  0.4178E+01  0.3694E+02
   9.760  0.4702E+01  0.3699E+02
   9.770  0.2418E+01  0.3701E+02
   9.780  0.1381E+01  0.3702E+02
   9.790  0.1266E+01  0.3704E+02
   9.800  0.1178E+01  0.3705E+02
   9.810  0.1346E+01  0.3706E+02
   9.820  0.1190E+01  0.3707E+02
   9.830  0.4570E+00  0.3708E+02
   9.840  0.1940E-01  0.3708E+02
   9.850  0.7945E+00  0.3709E+02
   9.860  0.1494E+01  0.3710E+02
   9.870  0.2247E+01  0.3712E+02
   9.880  0.4547E+01  0.3717E+02
   9.890  0.5798E+01  0.3723E+02
   9.900  0.4410E+01  0.3727E+02
   9.910  0.9549E+00  0.3728E+02
   9.920 -0.1885E+00  0.3728E+02
   9.930  0.1830E+01  0.3730E+02
   9.940  0.4703E+01  0.3735E+02
   9.950  0.3794E+01  0.3738E+02
   9.960  0.1153E+01  0.3739E+02
   9.970  0.1247E+01  0.3741E+02
   9.980  0.2887E+01  0.3744E+02
   9.990  0.4255E+01  0.3748E+02
  10.000  0.4006E+01  0.3752E+02
  10.010  0.2281E+01  0.3754E+02
  10.020  0.6108E+00  0.3755E+02
  10.030  0.8460E+00  0.3756E+02
  10.040  0.6336E+00  0.3756E+02
  10.050 -0.2088E-01  0.3756E+02
  10.060  0.5494E+00  0.3757E+02
  10.070  0.1661E+01  0.3758E+02
  10.080  0.2700E+01  0.3761E+02
  10.090  0.3729E+01  0.3765E+02
  10.100  0.2337E+01  0.3767E+02
  10.110  0.3546E+00  0.3768E+02
  10.120  0.4904E+00  0.3768E+02
  10.130  0.1392E+01  0.3769E+02
  10.140  0.1347E+01  0.3771E+02
  10.150  0.1009E+01  0.3772E+02
  10.160  0.1224E+01  0.3773E+02
  10.170  0.2281E+01  0.3775E+02
  10.180  0.9315E+00  0.3776E+02
  10.190 -0.2109E+00  0.3776E+02
  10.200  0.4094E+00  0.3776E+02
  10.210  0.1232E+01  0.3778E+02
  10.220  0.9487E+00  0.3779E+02
  10.230  0.9806E+00  0.3780E+02
  10.240  0.7962E+00  0.3780E+02
  10.250 -0.4897E-01  0.3780E+02
  10.260 -0.9953E-01  0.3780E+02
  10.270  0.1554E+00  0.3780E+02
  10.280  0.1157E+01  0.3782E+02
  10.290  0.2444E+01  0.3784E+02
  10.300  0.1607E+01  0.3786E+02
  10.310  0.9588E+00  0.3787E+02
  10.320  0.4917E+00  0.3787E+02
  10.330  0.2184E+00  0.3787E+02
  10.340  0.1640E+01  0.3789E+02
  10.350  0.2261E+01  0.3791E+02
  10.360  0.4013E+00  0.3792E+02
  10.370 -0.1363E+00  0.3791E+02
  10.380  0.9102E+00  0.3792E+02
  10.390  0.2092E+01  0.3794E+02
  10.400  0.1403E+01  0.3796E+02
  10.410  0.2489E+00  0.3796E+02
  10.420  0.1311E+01  0.3797E+02
  10.430  0.2358E+01  0.3800E+02
  10.440  0.6317E+00  0.3800E+02
  10.450 -0.3039E+00  0.3800E+02
  10.460 -0.8690E-01  0.3800E+02
  10.470 -0.5156E-02  0.3800E+02
  10.480 -0.8856E-04  0.3800E+02
  10.490 -0.4770E-06  0.3800E+02
  10.500 -0.8315E-09  0.3800E+02
  10.510 -0.4767E-12  0.3800E+02
  10.520 -0.9069E-16  0.3800E+02
  10.530 -0.5760E-20  0.3800E+02
  10.540 -0.1226E-24  0.3800E+02
  10.550 -0.8767E-30  0.3800E+02
  10.560 -0.2111E-35  0.3800E+02
  10.570 -0.1713E-41  0.3800E+02
  10.580 -0.4694E-48  0.3800E+02
  10.590 -0.4345E-55  0.3800E+02
  10.600 -0.1359E-62  0.3800E+02
  10.610 -0.1439E-70  0.3800E+02
  10.620 -0.6394E-79  0.3800E+02
  10.630 -0.1240E-79  0.3800E+02
  10.640 -0.1241E-79  0.3800E+02
  10.650 -0.1241E-79  0.3800E+02
  10.660 -0.1242E-79  0.3800E+02
  10.670 -0.1242E-79  0.3800E+02
  10.680 -0.1243E-79  0.3800E+02
  10.690 -0.1243E-79  0.3800E+02
  10.700 -0.1244E-79  0.3800E+02
  10.710 -0.1244E-79  0.3800E+02
  10.720 -0.1245E-79  0.3800E+02
  10.730 -0.1245E-79  0.3800E+02
  10.740 -0.1246E-79  0.3800E+02
  10.750 -0.1246E-79  0.3800E+02
  10.760 -0.1247E-79  0.3800E+02
  10.770 -0.1247E-79  0.3800E+02
  10.780 -0.1248E-79  0.3800E+02
  10.790 -0.1248E-79  0.3800E+02
  10.800 -0.1249E-79  0.3800E+02
  10.810 -0.1249E-79  0.3800E+02
  10.820 -0.1250E-79  0.3800E+02
  10.830 -0.1250E-79  0.3800E+02
  10.840 -0.1251E-79  0.3800E+02
  10.850 -0.1251E-79  0.3800E+02
  10.860 -0.1252E-79  0.3800E+02
  10.870 -0.1252E-79  0.3800E+02
  10.880 -0.1253E-79  0.3800E+02
  10.890 -0.1253E-79  0.3800E+02
  10.900 -0.1254E-79  0.3800E+02
  10.910 -0.1254E-79  0.3800E+02
  10.920 -0.1255E-79  0.3800E+02
  10.930 -0.1255E-79  0.3800E+02
  10.940 -0.1256E-79  0.3800E+02
  10.950 -0.1256E-79  0.3800E+02
  10.960 -0.1257E-79  0.3800E+02
  10.970 -0.1257E-79  0.3800E+02
  10.980 -0.1258E-79  0.3800E+02
  10.990 -0.1258E-79  0.3800E+02
  11.000 -0.1259E-79  0.3800E+02
  11.010 -0.1259E-79  0.3800E+02
  11.020 -0.1260E-79  0.3800E+02
  11.030 -0.1260E-79  0.3800E+02
  11.040 -0.1261E-79  0.3800E+02
  11.050 -0.1261E-79  0.3800E+02
  11.060 -0.1262E-79  0.3800E+02
  11.070 -0.1262E-79  0.3800E+02
  11.080 -0.1263E-79  0.3800E+02
  11.090 -0.1263E-79  0.3800E+02
  11.100 -0.1264E-79  0.3800E+02
  11.110 -0.1264E-79  0.3800E+02
  11.120 -0.1265E-79  0.3800E+02
  11.130 -0.1265E-79  0.3800E+02
  11.140 -0.1266E-79  0.3800E+02
  11.150 -0.1266E-79  0.3800E+02
  11.160 -0.1267E-79  0.3800E+02
  11.170 -0.1267E-79  0.3800E+02
  11.180 -0.1268E-79  0.3800E+02
  11.190 -0.1268E-79  0.3800E+02
  11.200 -0.1269E-79  0.3800E+02
  11.210 -0.1269E-79  0.3800E+02
  11.220 -0.1270E-79  0.3800E+02
  11.230 -0.1270E-79  0.3800E+02
  11.240 -0.1271E-79  0.3800E+02
  11.250 -0.1271E-79  0.3800E+02
  11.260 -0.1272E-79  0.3800E+02
  11.270 -0.1272E-79  0.3800E+02
  11.280 -0.1273E-79  0.3800E+02
  11.290 -0.1273E-79  0.3800E+02
  11.300 -0.1274E-79  0.3800E+02
  11.310 -0.1274E-79  0.3800E+02
  11.320 -0.1275E-79  0.3800E+02
  11.330 -0.1275E-79  0.3800E+02
  11.340 -0.1276E-79  0.3800E+02
  11.350 -0.1276E-79  0.3800E+02
  11.360 -0.1277E-79  0.3800E+02
  11.370 -0.1277E-79  0.3800E+02
  11.380 -0.1278E-79  0.3800E+02
  11.390 -0.1278E-79  0.3800E+02
  11.400 -0.1279E-79  0.3800E+02
  11.410 -0.1279E-79  0.3800E+02
  11.420 -0.1280E-79  0.3800E+02
  11.430 -0.1280E-79  0.3800E+02
  11.440 -0.1281E-79  0.3800E+02
  11.450 -0.1281E-79  0.3800E+02
  11.460 -0.1282E-79  0.3800E+02
  11.470 -0.1282E-79  0.3800E+02
  11.480 -0.1283E-79  0.3800E+02
  11.490 -0.1283E-79  0.3800E+02
  11.500 -0.1284E-79  0.3800E+02
  11.510 -0.1284E-79  0.3800E+02
  11.520 -0.1285E-79  0.3800E+02
  11.530 -0.1285E-79  0.3800E+02
  11.540 -0.1286E-79  0.3800E+02
  11.550 -0.1286E-79  0.3800E+02
  11.560 -0.1287E-79  0.3800E+02
  11.570 -0.1287E-79  0.3800E+02
  11.580 -0.1288E-79  0.3800E+02
  11.590 -0.1288E-79  0.3800E+02
  11.600 -0.1289E-79  0.3800E+02
  11.610 -0.1289E-79  0.3800E+02
  11.620 -0.1290E-79  0.3800E+02
  11.630 -0.1290E-79  0.3800E+02
  11.640 -0.1291E-79  0.3800E+02
  11.650 -0.1291E-79  0.3800E+02
  11.660 -0.1292E-79  0.3800E+02
  11.670 -0.1292E-79  0.3800E+02
  11.680 -0.1293E-79  0.3800E+02
  11.690 -0.1293E-79  0.3800E+02
  11.700 -0.1294E-79  0.3800E+02
  11.710 -0.1294E-79  0.3800E+02
  11.720 -0.1295E-79  0.3800E+02
  11.730 -0.1295E-79  0.3800E+02
  11.740 -0.1296E-79  0.3800E+02
  11.750 -0.1296E-79  0.3800E+02
  11.760 -0.1297E-79  0.3800E+02
  11.770 -0.1297E-79  0.3800E+02
  11.780 -0.1298E-79  0.3800E+02
  11.790 -0.1298E-79  0.3800E+02
  11.800 -0.1299E-79  0.3800E+02
  11.810 -0.1299E-79  0.3800E+02
  11.820 -0.1300E-79  0.3800E+02
  11.830 -0.1300E-79  0.3800E+02
  11.840 -0.1301E-79  0.3800E+02
  11.850 -0.1301E-79  0.3800E+02
  11.860 -0.1302E-79  0.3800E+02
  11.870 -0.1302E-79  0.3800E+02
  11.880 -0.1303E-79  0.3800E+02
  11.890 -0.1303E-79  0.3800E+02
  11.900 -0.1304E-79  0.3800E+02
  11.910 -0.1304E-79  0.3800E+02
  11.920 -0.1305E-79  0.3800E+02
  11.930 -0.1305E-79  0.3800E+02
  11.940 -0.1306E-79  0.3800E+02
  11.950 -0.1306E-79  0.3800E+02
  11.960 -0.1307E-79  0.3800E+02
  11.970 -0.1307E-79  0.3800E+02
  11.980 -0.1308E-79  0.3800E+02
  11.990 -0.1308E-79  0.3800E+02
  12.000 -0.1309E-79  0.3800E+02
  12.010 -0.1309E-79  0.3800E+02
  12.020 -0.1310E-79  0.3800E+02
  12.030 -0.1310E-79  0.3800E+02
  12.040 -0.1311E-79  0.3800E+02
  12.050 -0.1311E-79  0.3800E+02
  12.060 -0.1312E-79  0.3800E+02
  12.070 -0.1312E-79  0.3800E+02
  12.080 -0.1313E-79  0.3800E+02
  12.090 -0.1313E-79  0.3800E+02
  12.100 -0.1314E-79  0.3800E+02
  12.110 -0.1314E-79  0.3800E+02
  12.120 -0.1315E-79  0.3800E+02
  12.130 -0.1315E-79  0.3800E+02
  12.140 -0.1316E-79  0.3800E+02
  12.150 -0.1316E-79  0.3800E+02
  12.160 -0.1317E-79  0.3800E+02
  12.170 -0.1317E-79  0.3800E+02
  12.180 -0.1318E-79  0.3800E+02
  12.190 -0.1318E-79  0.3800E+02
  12.200 -0.1319E-79  0.3800E+02
  12.210 -0.1319E-79  0.3800E+02
  12.220 -0.1320E-79  0.3800E+02
  12.230 -0.1320E-79  0.3800E+02
  12.240 -0.1321E-79  0.3800E+02
  12.250 -0.1321E-79  0.3800E+02
  12.260 -0.1322E-79  0.3800E+02
  12.270 -0.1322E-79  0.3800E+02
  12.280 -0.1323E-79  0.3800E+02
  12.290 -0.1323E-79  0.3800E+02
  12.300 -0.1324E-79  0.3800E+02
  12.310 -0.1324E-79  0.3800E+02
  12.320 -0.1325E-79  0.3800E+02
  12.330 -0.1325E-79  0.3800E+02
  12.340 -0.1326E-79  0.3800E+02
  12.350 -0.1326E-79  0.3800E+02
  12.360 -0.1327E-79  0.3800E+02
  12.370 -0.1327E-79  0.3800E+02
  12.380 -0.1328E-79  0.3800E+02
  12.390 -0.1328E-79  0.3800E+02
  12.400 -0.1329E-79  0.3800E+02
  12.410 -0.1329E-79  0.3800E+02
  12.420 -0.1330E-79  0.3800E+02
  12.430 -0.1330E-79  0.3800E+02
  12.440 -0.1331E-79  0.3800E+02
  12.450 -0.1331E-79  0.3800E+02
  12.460 -0.1332E-79  0.3800E+02
  12.470 -0.1332E-79  0.3800E+02
  12.480 -0.1333E-79  0.3800E+02
  12.490 -0.1333E-79  0.3800E+02
  12.500 -0.1334E-79  0.3800E+02
  12.510 -0.1335E-79  0.3800E+02
  12.520 -0.1335E-79  0.3800E+02
  12.530 -0.1336E-79  0.3800E+02
  12.540 -0.1336E-79  0.3800E+02
  12.550 -0.1337E-79  0.3800E+02
  12.560 -0.1337E-79  0.3800E+02
  12.570 -0.1338E-79  0.3800E+02
  12.580 -0.1338E-79  0.3800E+02
  12.590 -0.1339E-79  0.3800E+02
  12.600 -0.1339E-79  0.3800E+02
  12.610 -0.1340E-79  0.3800E+02
  12.620 -0.1340E-79  0.3800E+02
  12.630 -0.1341E-79  0.3800E+02
  12.640 -0.1341E-79  0.3800E+02
  12.650 -0.1342E-79  0.3800E+02
  12.660 -0.1342E-79  0.3800E+02
  12.670 -0.1343E-79  0.3800E+02
  12.680 -0.1343E-79  0.3800E+02
  12.690 -0.1344E-79  0.3800E+02
  12.700 -0.1344E-79  0.3800E+02
  12.710 -0.1345E-79  0.3800E+02
  12.720 -0.1345E-79  0.3800E+02
  12.730 -0.1346E-79  0.3800E+02
  12.740 -0.1346E-79  0.3800E+02
  12.750 -0.1347E-79  0.3800E+02
  12.760 -0.1347E-79  0.3800E+02
  12.770 -0.1348E-79  0.3800E+02
  12.780 -0.1348E-79  0.3800E+02
  12.790 -0.1349E-79  0.3800E+02
  12.800 -0.1349E-79  0.3800E+02
  12.810 -0.1350E-79  0.3800E+02
  12.820 -0.1350E-79  0.3800E+02
  12.830 -0.1351E-79  0.3800E+02
  12.840 -0.1351E-79  0.3800E+02
  12.850 -0.1352E-79  0.3800E+02
  12.860 -0.1352E-79  0.3800E+02
  12.870 -0.1353E-79  0.3800E+02
  12.880 -0.1353E-79  0.3800E+02
  12.890 -0.1354E-79  0.3800E+02
  12.900 -0.1354E-79  0.3800E+02
  12.910 -0.1355E-79  0.3800E+02
  12.920 -0.1355E-79  0.3800E+02
  12.930 -0.1356E-79  0.3800E+02
  12.940 -0.1356E-79  0.3800E+02
  12.950 -0.1357E-79  0.3800E+02
  12.960 -0.1357E-79  0.3800E+02
  12.970 -0.1358E-79  0.3800E+02
  12.980 -0.1358E-79  0.3800E+02
  12.990 -0.1359E-79  0.3800E+02
  13.000 -0.1359E-79  0.3800E+02
  13.010 -0.1360E-79  0.3800E+02
  13.020 -0.1360E-79  0.3800E+02
  13.030 -0.1361E-79  0.3800E+02
  13.040 -0.1361E-79  0.3800E+02
  13.050 -0.1362E-79  0.3800E+02
  13.060 -0.1362E-79  0.3800E+02
  13.070 -0.1363E-79  0.3800E+02
  13.080 -0.1363E-79  0.3800E+02
  13.090 -0.1364E-79  0.3800E+02
  13.100 -0.1364E-79  0.3800E+02
  13.110 -0.1365E-79  0.3800E+02
  13.120 -0.1365E-79  0.3800E+02
  13.130 -0.1366E-79  0.3800E+02
  13.140 -0.1366E-79  0.3800E+02
  13.150 -0.1367E-79  0.3800E+02
  13.160 -0.1367E-79  0.3800E+02
  13.170 -0.1368E-79  0.3800E+02
  13.180 -0.1368E-79  0.3800E+02
  13.190 -0.1369E-79  0.3800E+02
  13.200 -0.1369E-79  0.3800E+02
  13.210 -0.1370E-79  0.3800E+02
  13.220 -0.1370E-79  0.3800E+02
  13.230 -0.1371E-79  0.3800E+02
  13.240 -0.1371E-79  0.3800E+02
  13.250 -0.1372E-79  0.3800E+02
  13.260 -0.1372E-79  0.3800E+02
  13.270 -0.1373E-79  0.3800E+02
  13.280 -0.1373E-79  0.3800E+02
  13.290 -0.1374E-79  0.3800E+02
  13.300 -0.1374E-79  0.3800E+02
  13.310 -0.1375E-79  0.3800E+02
  13.320 -0.1375E-79  0.3800E+02
  13.330 -0.1376E-79  0.3800E+02
  13.340 -0.1376E-79  0.3800E+02
  13.350 -0.1377E-79  0.3800E+02
  13.360 -0.1377E-79  0.3800E+02
  13.370 -0.1378E-79  0.3800E+02
  13.380 -0.1378E-79  0.3800E+02
  13.390 -0.1379E-79  0.3800E+02
  13.400 -0.1379E-79  0.3800E+02
  13.410 -0.1380E-79  0.3800E+02
  13.420 -0.1380E-79  0.3800E+02
  13.430 -0.1381E-79  0.3800E+02
  13.440 -0.1381E-79  0.3800E+02
  13.450 -0.1382E-79  0.3800E+02
  13.460 -0.1382E-79  0.3800E+02
  13.470 -0.1383E-79  0.3800E+02
  13.480 -0.1383E-79  0.3800E+02
  13.490 -0.1384E-79  0.3800E+02
  13.500 -0.1384E-79  0.3800E+02
  13.510 -0.1385E-79  0.3800E+02
  13.520 -0.1385E-79  0.3800E+02
  13.530 -0.1386E-79  0.3800E+02
  13.540 -0.1386E-79  0.3800E+02
  13.550 -0.1387E-79  0.3800E+02
  13.560 -0.1387E-79  0.3800E+02
  13.570 -0.1388E-79  0.3800E+02
  13.580 -0.1388E-79  0.3800E+02
  13.590 -0.1389E-79  0.3800E+02
  13.600 -0.1389E-79  0.3800E+02
  13.610 -0.1390E-79  0.3800E+02
  13.620 -0.1390E-79  0.3800E+02
  13.630 -0.1391E-79  0.3800E+02
  13.640 -0.1391E-79  0.3800E+02
  13.650 -0.1392E-79  0.3800E+02
  13.660 -0.1392E-79  0.3800E+02
  13.670 -0.1393E-79  0.3800E+02
  13.680 -0.1393E-79  0.3800E+02
  13.690 -0.1394E-79  0.3800E+02
  13.700 -0.1394E-79  0.3800E+02
  13.710 -0.1395E-79  0.3800E+02
  13.720 -0.1395E-79  0.3800E+02
  13.730 -0.1396E-79  0.3800E+02
  13.740 -0.1396E-79  0.3800E+02
  13.750 -0.1397E-79  0.3800E+02
  13.760 -0.1397E-79  0.3800E+02
  13.770 -0.1398E-79  0.3800E+02
  13.780 -0.1398E-79  0.3800E+02
  13.790 -0.1399E-79  0.3800E+02
  13.800 -0.1399E-79  0.3800E+02
  13.810 -0.1400E-79  0.3800E+02
  13.820 -0.1400E-79  0.3800E+02
  13.830 -0.1401E-79  0.3800E+02
  13.840 -0.1401E-79  0.3800E+02
  13.850 -0.1402E-79  0.3800E+02
  13.860 -0.1402E-79  0.3800E+02
  13.870 -0.1403E-79  0.3800E+02
  13.880 -0.1403E-79  0.3800E+02
  13.890 -0.1404E-79  0.3800E+02
  13.900 -0.1404E-79  0.3800E+02
  13.910 -0.1405E-79  0.3800E+02
  13.920 -0.1405E-79  0.3800E+02
  13.930 -0.1406E-79  0.3800E+02
  13.940 -0.1406E-79  0.3800E+02
  13.950 -0.1407E-79  0.3800E+02
  13.960 -0.1407E-79  0.3800E+02
  13.970 -0.1408E-79  0.3800E+02
  13.980 -0.1408E-79  0.3800E+02
  13.990 -0.1409E-79  0.3800E+02
  14.000 -0.1409E-79  0.3800E+02
  14.010 -0.1410E-79  0.3800E+02
  14.020 -0.1410E-79  0.3800E+02
  14.030 -0.1411E-79  0.3800E+02
  14.040 -0.1411E-79  0.3800E+02
  14.050 -0.1412E-79  0.3800E+02
  14.060 -0.1412E-79  0.3800E+02
  14.070 -0.1413E-79  0.3800E+02
  14.080 -0.1413E-79  0.3800E+02
  14.090 -0.1414E-79  0.3800E+02
  14.100 -0.1414E-79  0.3800E+02
  14.110 -0.1415E-79  0.3800E+02
  14.120 -0.1415E-79  0.3800E+02
  14.130 -0.1416E-79  0.3800E+02
  14.140 -0.1416E-79  0.3800E+02
  14.150 -0.1417E-79  0.3800E+02
  14.160 -0.1417E-79  0.3800E+02
  14.170 -0.1418E-79  0.3800E+02
  14.180 -0.1418E-79  0.3800E+02
  14.190 -0.1419E-79  0.3800E+02
  14.200 -0.1419E-79  0.3800E+02
  14.210 -0.1420E-79  0.3800E+02
  14.220 -0.1420E-79  0.3800E+02
  14.230 -0.1421E-79  0.3800E+02
  14.240 -0.1421E-79  0.3800E+02
  14.250 -0.1422E-79  0.3800E+02
  14.260 -0.1422E-79  0.3800E+02
  14.270 -0.1423E-79  0.3800E+02
  14.280 -0.1423E-79  0.3800E+02
  14.290 -0.1424E-79  0.3800E+02
  14.300 -0.1424E-79  0.3800E+02
  14.310 -0.1425E-79  0.3800E+02
  14.320 -0.1425E-79  0.3800E+02
  14.330 -0.1426E-79  0.3800E+02
  14.340 -0.1426E-79  0.3800E+02
  14.350 -0.1427E-79  0.3800E+02
  14.360 -0.1427E-79  0.3800E+02
  14.370 -0.1428E-79  0.3800E+02
  14.380 -0.1428E-79  0.3800E+02
  14.390 -0.1429E-79  0.3800E+02
  14.400 -0.1429E-79  0.3800E+02
  14.410 -0.1430E-79  0.3800E+02
  14.420 -0.1430E-79  0.3800E+02
  14.430 -0.1431E-79  0.3800E+02
  14.440 -0.1431E-79  0.3800E+02
  14.450 -0.1432E-79  0.3800E+02
  14.460 -0.1432E-79  0.3800E+02
  14.470 -0.1433E-79  0.3800E+02
  14.480 -0.1433E-79  0.3800E+02
  14.490 -0.1434E-79  0.3800E+02
  14.500 -0.1434E-79  0.3800E+02
  14.510 -0.1435E-79  0.3800E+02
  14.520 -0.1435E-79  0.3800E+02
  14.530 -0.1436E-79  0.3800E+02
  14.540 -0.1436E-79  0.3800E+02
  14.550 -0.1437E-79  0.3800E+02
  14.560 -0.1437E-79  0.3800E+02
  14.570 -0.1438E-79  0.3800E+02
  14.580 -0.1438E-79  0.3800E+02
  14.590 -0.1439E-79  0.3800E+02
  14.600 -0.1439E-79  0.3800E+02
  14.610 -0.1440E-79  0.3800E+02
  14.620 -0.1440E-79  0.3800E+02
  14.630 -0.1441E-79  0.3800E+02
  14.640 -0.1441E-79  0.3800E+02
  14.650 -0.1442E-79  0.3800E+02
  14.660 -0.1442E-79  0.3800E+02
  14.670 -0.1443E-79  0.3800E+02
  14.680 -0.1443E-79  0.3800E+02
  14.690 -0.1444E-79  0.3800E+02
  14.700 -0.1444E-79  0.3800E+02
  14.710 -0.1445E-79  0.3800E+02
  14.720 -0.1445E-79  0.3800E+02
  14.730 -0.1446E-79  0.3800E+02
  14.740 -0.1446E-79  0.3800E+02
  14.750 -0.1447E-79  0.3800E+02
  14.760 -0.1447E-79  0.3800E+02
  14.770 -0.1448E-79  0.3800E+02
  14.780 -0.1448E-79  0.3800E+02
  14.790 -0.1449E-79  0.3800E+02
  14.800 -0.1449E-79  0.3800E+02
  14.810 -0.1450E-79  0.3800E+02
  14.820 -0.1450E-79  0.3800E+02
  14.830 -0.1451E-79  0.3800E+02
  14.840 -0.1451E-79  0.3800E+02
  14.850 -0.1452E-79  0.3800E+02
  14.860 -0.1452E-79  0.3800E+02
  14.870 -0.1453E-79  0.3800E+02
  14.880 -0.1453E-79  0.3800E+02
  14.890 -0.1454E-79  0.3800E+02
  14.900 -0.1454E-79  0.3800E+02
  14.910 -0.1455E-79  0.3800E+02
  14.920 -0.1455E-79  0.3800E+02
  14.930 -0.1456E-79  0.3800E+02
  14.940 -0.1456E-79  0.3800E+02
  14.950 -0.1457E-79  0.3800E+02
  14.960 -0.1457E-79  0.3800E+02
  14.970 -0.1458E-79  0.3800E+02
  14.980 -0.1458E-79  0.3800E+02
  14.990 -0.1459E-79  0.3800E+02
  15.000 -0.1459E-79  0.3800E+02
  15.010 -0.1460E-79  0.3800E+02
  15.020 -0.1460E-79  0.3800E+02
  15.030 -0.1461E-79  0.3800E+02
  15.040 -0.1461E-79  0.3800E+02
  15.050 -0.1462E-79  0.3800E+02
  15.060 -0.1462E-79  0.3800E+02
  15.070 -0.1463E-79  0.3800E+02
  15.080 -0.1463E-79  0.3800E+02
  15.090 -0.1464E-79  0.3800E+02
  15.100 -0.1464E-79  0.3800E+02
  15.110 -0.1465E-79  0.3800E+02
  15.120 -0.1465E-79  0.3800E+02
  15.130 -0.1466E-79  0.3800E+02
  15.140 -0.1466E-79  0.3800E+02
  15.150 -0.1467E-79  0.3800E+02
  15.160 -0.1467E-79  0.3800E+02
  15.170 -0.1468E-79  0.3800E+02
  15.180 -0.1468E-79  0.3800E+02
  15.190 -0.1469E-79  0.3800E+02
  15.200 -0.1469E-79  0.3800E+02
  15.210 -0.1470E-79  0.3800E+02
  15.220 -0.1470E-79  0.3800E+02
  15.230 -0.1471E-79  0.3800E+02
  15.240 -0.1471E-79  0.3800E+02
  15.250 -0.1472E-79  0.3800E+02
  15.260 -0.1472E-79  0.3800E+02
  15.270 -0.1473E-79  0.3800E+02
  15.280 -0.1473E-79  0.3800E+02
  15.290 -0.1474E-79  0.3800E+02
  15.300 -0.1474E-79  0.3800E+02
  15.310 -0.1475E-79  0.3800E+02
  15.320 -0.1475E-79  0.3800E+02
  15.330 -0.1476E-79  0.3800E+02
  15.340 -0.1476E-79  0.3800E+02
  15.350 -0.1477E-79  0.3800E+02
  15.360 -0.1477E-79  0.3800E+02
  15.370 -0.1478E-79  0.3800E+02
  15.380 -0.1478E-79  0.3800E+02
  15.390 -0.1479E-79  0.3800E+02
  15.400 -0.1479E-79  0.3800E+02
  15.410 -0.1480E-79  0.3800E+02
  15.420 -0.1480E-79  0.3800E+02
  15.430 -0.1481E-79  0.3800E+02
  15.440 -0.1481E-79  0.3800E+02
  15.450 -0.1482E-79  0.3800E+02
  15.460 -0.1482E-79  0.3800E+02
  15.470 -0.1483E-79  0.3800E+02
  15.480 -0.1483E-79  0.3800E+02
  15.490 -0.1484E-79  0.3800E+02
  15.500 -0.1484E-79  0.3800E+02
  15.510 -0.1485E-79  0.3800E+02
  15.520 -0.1485E-79  0.3800E+02
  15.530 -0.1486E-79  0.3800E+02
  15.540 -0.1486E-79  0.3800E+02
  15.550 -0.1487E-79  0.3800E+02
  15.560 -0.1487E-79  0.3800E+02
  15.570 -0.1488E-79  0.3800E+02
  15.580 -0.1488E-79  0.3800E+02
  15.590 -0.1489E-79  0.3800E+02
  15.600 -0.1489E-79  0.3800E+02
  15.610 -0.1490E-79  0.3800E+02
  15.620 -0.1490E-79  0.3800E+02
  15.630 -0.1491E-79  0.3800E+02
  15.640 -0.1491E-79  0.3800E+02
  15.650 -0.1492E-79  0.3800E+02
  15.660 -0.1492E-79  0.3800E+02
  15.670 -0.1493E-79  0.3800E+02
  15.680 -0.1493E-79  0.3800E+02
  15.690 -0.1494E-79  0.3800E+02
  15.700 -0.1494E-79  0.3800E+02
  15.710 -0.1495E-79  0.3800E+02
  15.720 -0.1495E-79  0.3800E+02
  15.730 -0.1496E-79  0.3800E+02
  15.740 -0.1496E-79  0.3800E+02
  15.750 -0.1497E-79  0.3800E+02
  15.760 -0.1497E-79  0.3800E+02
  15.770 -0.1498E-79  0.3800E+02
  15.780 -0.1498E-79  0.3800E+02
  15.790 -0.1499E-79  0.3800E+02
  15.800 -0.1499E-79  0.3800E+02
  15.810 -0.1500E-79  0.3800E+02
  15.820 -0.1500E-79  0.3800E+02
  15.830 -0.1501E-79  0.3800E+02
  15.840 -0.1501E-79  0.3800E+02
  15.850 -0.1502E-79  0.3800E+02
  15.860 -0.1502E-79  0.3800E+02
  15.870 -0.1503E-79  0.3800E+02
  15.880 -0.1503E-79  0.3800E+02
  15.890 -0.1504E-79  0.3800E+02
  15.900 -0.1504E-79  0.3800E+02
  15.910 -0.1505E-79  0.3800E+02
  15.920 -0.1505E-79  0.3800E+02
  15.930 -0.1506E-79  0.3800E+02
  15.940 -0.1506E-79  0.3800E+02
  15.950 -0.1507E-79  0.3800E+02
  15.960 -0.1507E-79  0.3800E+02
  15.970 -0.1508E-79  0.3800E+02
  15.980 -0.1508E-79  0.3800E+02
  15.990 -0.1509E-79  0.3800E+02
  16.000 -0.1509E-79  0.3800E+02
