#  E (eV)   dos(E)     Int dos(E) EFermi =   -0.207 eV
  -9.000  0.0000E+00  0.4600E+02
  -8.990  0.0000E+00  0.4600E+02
  -8.980  0.0000E+00  0.4600E+02
  -8.970  0.0000E+00  0.4600E+02
  -8.960  0.0000E+00  0.4600E+02
  -8.950  0.0000E+00  0.4600E+02
  -8.940  0.0000E+00  0.4600E+02
  -8.930  0.0000E+00  0.4600E+02
  -8.920  0.0000E+00  0.4600E+02
  -8.910  0.0000E+00  0.4600E+02
  -8.900  0.0000E+00  0.4600E+02
  -8.890  0.0000E+00  0.4600E+02
  -8.880  0.0000E+00  0.4600E+02
  -8.870  0.0000E+00  0.4600E+02
  -8.860  0.0000E+00  0.4600E+02
  -8.850  0.0000E+00  0.4600E+02
  -8.840  0.0000E+00  0.4600E+02
  -8.830  0.0000E+00  0.4600E+02
  -8.820  0.0000E+00  0.4600E+02
  -8.810  0.0000E+00  0.4600E+02
  -8.800  0.0000E+00  0.4600E+02
  -8.790  0.0000E+00  0.4600E+02
  -8.780  0.0000E+00  0.4600E+02
  -8.770  0.0000E+00  0.4600E+02
  -8.760  0.0000E+00  0.4600E+02
  -8.750  0.0000E+00  0.4600E+02
  -8.740  0.0000E+00  0.4600E+02
  -8.730  0.0000E+00  0.4600E+02
  -8.720  0.0000E+00  0.4600E+02
  -8.710  0.0000E+00  0.4600E+02
  -8.700  0.0000E+00  0.4600E+02
  -8.690  0.0000E+00  0.4600E+02
  -8.680  0.0000E+00  0.4600E+02
  -8.670  0.0000E+00  0.4600E+02
  -8.660  0.0000E+00  0.4600E+02
  -8.650  0.0000E+00  0.4600E+02
  -8.640  0.0000E+00  0.4600E+02
  -8.630  0.0000E+00  0.4600E+02
  -8.620  0.0000E+00  0.4600E+02
  -8.610  0.0000E+00  0.4600E+02
  -8.600  0.0000E+00  0.4600E+02
  -8.590  0.0000E+00  0.4600E+02
  -8.580  0.0000E+00  0.4600E+02
  -8.570  0.0000E+00  0.4600E+02
  -8.560  0.0000E+00  0.4600E+02
  -8.550  0.0000E+00  0.4600E+02
  -8.540  0.0000E+00  0.4600E+02
  -8.530  0.0000E+00  0.4600E+02
  -8.520  0.0000E+00  0.4600E+02
  -8.510  0.0000E+00  0.4600E+02
  -8.500  0.0000E+00  0.4600E+02
  -8.490  0.0000E+00  0.4600E+02
  -8.480  0.0000E+00  0.4600E+02
  -8.470  0.0000E+00  0.4600E+02
  -8.460  0.0000E+00  0.4600E+02
  -8.450  0.0000E+00  0.4600E+02
  -8.440  0.0000E+00  0.4600E+02
  -8.430  0.0000E+00  0.4600E+02
  -8.420  0.0000E+00  0.4600E+02
  -8.410  0.0000E+00  0.4600E+02
  -8.400  0.0000E+00  0.4600E+02
  -8.390  0.0000E+00  0.4600E+02
  -8.380  0.0000E+00  0.4600E+02
  -8.370  0.0000E+00  0.4600E+02
  -8.360  0.0000E+00  0.4600E+02
  -8.350  0.0000E+00  0.4600E+02
  -8.340  0.0000E+00  0.4600E+02
  -8.330  0.0000E+00  0.4600E+02
  -8.320  0.0000E+00  0.4600E+02
  -8.310  0.0000E+00  0.4600E+02
  -8.300  0.0000E+00  0.4600E+02
  -8.290  0.0000E+00  0.4600E+02
  -8.280  0.0000E+00  0.4600E+02
  -8.270  0.0000E+00  0.4600E+02
  -8.260  0.0000E+00  0.4600E+02
  -8.250  0.0000E+00  0.4600E+02
  -8.240  0.0000E+00  0.4600E+02
  -8.230  0.0000E+00  0.4600E+02
  -8.220  0.0000E+00  0.4600E+02
  -8.210  0.0000E+00  0.4600E+02
  -8.200  0.0000E+00  0.4600E+02
  -8.190  0.0000E+00  0.4600E+02
  -8.180  0.0000E+00  0.4600E+02
  -8.170  0.0000E+00  0.4600E+02
  -8.160  0.0000E+00  0.4600E+02
  -8.150  0.0000E+00  0.4600E+02
  -8.140  0.0000E+00  0.4600E+02
  -8.130  0.0000E+00  0.4600E+02
  -8.120  0.0000E+00  0.4600E+02
  -8.110  0.0000E+00  0.4600E+02
  -8.100  0.0000E+00  0.4600E+02
  -8.090  0.0000E+00  0.4600E+02
  -8.080  0.0000E+00  0.4600E+02
  -8.070  0.0000E+00  0.4600E+02
  -8.060  0.0000E+00  0.4600E+02
  -8.050  0.0000E+00  0.4600E+02
  -8.040  0.0000E+00  0.4600E+02
  -8.030  0.0000E+00  0.4600E+02
  -8.020  0.0000E+00  0.4600E+02
  -8.010  0.0000E+00  0.4600E+02
  -8.000  0.0000E+00  0.4600E+02
  -7.990  0.0000E+00  0.4600E+02
  -7.980  0.0000E+00  0.4600E+02
  -7.970  0.0000E+00  0.4600E+02
  -7.960  0.0000E+00  0.4600E+02
  -7.950  0.0000E+00  0.4600E+02
  -7.940  0.0000E+00  0.4600E+02
  -7.930  0.0000E+00  0.4600E+02
  -7.920  0.0000E+00  0.4600E+02
  -7.910  0.0000E+00  0.4600E+02
  -7.900  0.0000E+00  0.4600E+02
  -7.890  0.0000E+00  0.4600E+02
  -7.880  0.0000E+00  0.4600E+02
  -7.870  0.0000E+00  0.4600E+02
  -7.860  0.0000E+00  0.4600E+02
  -7.850  0.0000E+00  0.4600E+02
  -7.840  0.0000E+00  0.4600E+02
  -7.830  0.0000E+00  0.4600E+02
  -7.820  0.0000E+00  0.4600E+02
  -7.810  0.0000E+00  0.4600E+02
  -7.800  0.0000E+00  0.4600E+02
  -7.790  0.0000E+00  0.4600E+02
  -7.780  0.0000E+00  0.4600E+02
  -7.770  0.0000E+00  0.4600E+02
  -7.760  0.0000E+00  0.4600E+02
  -7.750  0.0000E+00  0.4600E+02
  -7.740  0.0000E+00  0.4600E+02
  -7.730  0.0000E+00  0.4600E+02
  -7.720  0.0000E+00  0.4600E+02
  -7.710  0.0000E+00  0.4600E+02
  -7.700  0.2537E-01  0.4600E+02
  -7.690  0.5221E-01  0.4600E+02
  -7.680  0.7906E-01  0.4600E+02
  -7.670  0.1059E+00  0.4600E+02
  -7.660  0.1327E+00  0.4600E+02
  -7.650  0.1596E+00  0.4600E+02
  -7.640  0.1864E+00  0.4601E+02
  -7.630  0.2133E+00  0.4601E+02
  -7.620  0.2401E+00  0.4601E+02
  -7.610  0.2670E+00  0.4601E+02
  -7.600  0.2938E+00  0.4602E+02
  -7.590  0.3206E+00  0.4602E+02
  -7.580  0.3475E+00  0.4602E+02
  -7.570  0.3743E+00  0.4603E+02
  -7.560  0.2002E+00  0.4603E+02
  -7.550  0.2029E+00  0.4603E+02
  -7.540  0.2056E+00  0.4603E+02
  -7.530  0.2083E+00  0.4603E+02
  -7.520  0.2110E+00  0.4604E+02
  -7.510  0.2137E+00  0.4604E+02
  -7.500  0.2164E+00  0.4604E+02
  -7.490  0.2191E+00  0.4604E+02
  -7.480  0.2218E+00  0.4605E+02
  -7.470  0.2245E+00  0.4605E+02
  -7.460  0.2272E+00  0.4605E+02
  -7.450  0.2299E+00  0.4605E+02
  -7.440  0.2326E+00  0.4605E+02
  -7.430  0.2353E+00  0.4606E+02
  -7.420  0.2380E+00  0.4606E+02
  -7.410  0.2407E+00  0.4606E+02
  -7.400  0.2434E+00  0.4606E+02
  -7.390  0.2461E+00  0.4607E+02
  -7.380  0.2488E+00  0.4607E+02
  -7.370  0.2515E+00  0.4607E+02
  -7.360  0.2542E+00  0.4607E+02
  -7.350  0.2569E+00  0.4608E+02
  -7.340  0.2596E+00  0.4608E+02
  -7.330  0.2623E+00  0.4608E+02
  -7.320  0.2650E+00  0.4608E+02
  -7.310  0.2677E+00  0.4609E+02
  -7.300  0.2704E+00  0.4609E+02
  -7.290  0.2692E+00  0.4609E+02
  -7.280  0.2676E+00  0.4609E+02
  -7.270  0.1160E+01  0.4610E+02
  -7.260  0.1214E+01  0.4611E+02
  -7.250  0.1269E+01  0.4613E+02
  -7.240  0.1324E+01  0.4614E+02
  -7.230  0.1378E+01  0.4615E+02
  -7.220  0.1433E+01  0.4617E+02
  -7.210  0.1473E+01  0.4618E+02
  -7.200  0.1489E+01  0.4620E+02
  -7.190  0.1504E+01  0.4621E+02
  -7.180  0.1519E+01  0.4623E+02
  -7.170  0.1536E+01  0.4624E+02
  -7.160  0.1555E+01  0.4626E+02
  -7.150  0.1574E+01  0.4627E+02
  -7.140  0.1340E+01  0.4629E+02
  -7.130  0.1358E+01  0.4630E+02
  -7.120  0.1376E+01  0.4631E+02
  -7.110  0.1394E+01  0.4633E+02
  -7.100  0.1412E+01  0.4634E+02
  -7.090  0.1430E+01  0.4636E+02
  -7.080  0.1448E+01  0.4637E+02
  -7.070  0.1466E+01  0.4639E+02
  -7.060  0.1484E+01  0.4640E+02
  -7.050  0.1502E+01  0.4642E+02
  -7.040  0.1521E+01  0.4643E+02
  -7.030  0.1539E+01  0.4645E+02
  -7.020  0.1557E+01  0.4646E+02
  -7.010  0.1575E+01  0.4648E+02
  -7.000  0.1593E+01  0.4649E+02
  -6.990  0.1611E+01  0.4651E+02
  -6.980  0.1589E+01  0.4653E+02
  -6.970  0.1604E+01  0.4654E+02
  -6.960  0.1620E+01  0.4656E+02
  -6.950  0.1635E+01  0.4657E+02
  -6.940  0.1637E+01  0.4659E+02
  -6.930  0.1637E+01  0.4661E+02
  -6.920  0.1636E+01  0.4662E+02
  -6.910  0.1635E+01  0.4664E+02
  -6.900  0.1635E+01  0.4666E+02
  -6.890  0.1634E+01  0.4667E+02
  -6.880  0.1633E+01  0.4669E+02
  -6.870  0.1640E+01  0.4670E+02
  -6.860  0.1649E+01  0.4672E+02
  -6.850  0.1665E+01  0.4674E+02
  -6.840  0.1682E+01  0.4675E+02
  -6.830  0.1699E+01  0.4677E+02
  -6.820  0.1717E+01  0.4679E+02
  -6.810  0.1727E+01  0.4681E+02
  -6.800  0.1748E+01  0.4682E+02
  -6.790  0.1769E+01  0.4684E+02
  -6.780  0.1790E+01  0.4686E+02
  -6.770  0.1811E+01  0.4688E+02
  -6.760  0.1833E+01  0.4689E+02
  -6.750  0.1854E+01  0.4691E+02
  -6.740  0.1875E+01  0.4693E+02
  -6.730  0.1896E+01  0.4695E+02
  -6.720  0.1917E+01  0.4697E+02
  -6.710  0.1939E+01  0.4699E+02
  -6.700  0.1965E+01  0.4701E+02
  -6.690  0.1993E+01  0.4703E+02
  -6.680  0.2021E+01  0.4705E+02
  -6.670  0.2050E+01  0.4707E+02
  -6.660  0.2078E+01  0.4709E+02
  -6.650  0.2140E+01  0.4711E+02
  -6.640  0.2212E+01  0.4713E+02
  -6.630  0.2288E+01  0.4715E+02
  -6.620  0.2368E+01  0.4718E+02
  -6.610  0.2473E+01  0.4720E+02
  -6.600  0.2584E+01  0.4723E+02
  -6.590  0.2694E+01  0.4725E+02
  -6.580  0.2805E+01  0.4728E+02
  -6.570  0.2916E+01  0.4731E+02
  -6.560  0.3026E+01  0.4734E+02
  -6.550  0.3077E+01  0.4737E+02
  -6.540  0.3081E+01  0.4740E+02
  -6.530  0.3887E+01  0.4744E+02
  -6.520  0.3663E+01  0.4748E+02
  -6.510  0.3439E+01  0.4751E+02
  -6.500  0.3214E+01  0.4755E+02
  -6.490  0.2990E+01  0.4758E+02
  -6.480  0.2765E+01  0.4761E+02
  -6.470  0.2541E+01  0.4763E+02
  -6.460  0.2316E+01  0.4766E+02
  -6.450  0.2223E+01  0.4768E+02
  -6.440  0.2278E+01  0.4770E+02
  -6.430  0.2333E+01  0.4772E+02
  -6.420  0.2388E+01  0.4775E+02
  -6.410  0.2444E+01  0.4777E+02
  -6.400  0.1384E+01  0.4779E+02
  -6.390  0.1332E+01  0.4780E+02
  -6.380  0.1370E+01  0.4781E+02
  -6.370  0.1409E+01  0.4783E+02
  -6.360  0.1448E+01  0.4784E+02
  -6.350  0.1487E+01  0.4786E+02
  -6.340  0.1526E+01  0.4787E+02
  -6.330  0.1565E+01  0.4789E+02
  -6.320  0.1604E+01  0.4790E+02
  -6.310  0.1643E+01  0.4792E+02
  -6.300  0.1682E+01  0.4794E+02
  -6.290  0.1721E+01  0.4795E+02
  -6.280  0.2057E+00  0.4798E+02
  -6.270  0.1918E+00  0.4799E+02
  -6.260  0.1779E+00  0.4799E+02
  -6.250  0.1641E+00  0.4799E+02
  -6.240  0.1502E+00  0.4799E+02
  -6.230  0.1363E+00  0.4799E+02
  -6.220  0.1225E+00  0.4799E+02
  -6.210  0.1086E+00  0.4800E+02
  -6.200  0.9471E-01  0.4800E+02
  -6.190  0.8084E-01  0.4800E+02
  -6.180  0.6697E-01  0.4800E+02
  -6.170  0.5310E-01  0.4800E+02
  -6.160  0.3923E-01  0.4800E+02
  -6.150  0.2536E-01  0.4800E+02
  -6.140  0.1149E-01  0.4800E+02
  -6.130  0.1817E-02  0.4800E+02
  -6.120  0.1258E-01  0.4800E+02
  -6.110  0.2334E-01  0.4800E+02
  -6.100  0.3410E-01  0.4800E+02
  -6.090  0.4486E-01  0.4800E+02
  -6.080  0.5562E-01  0.4800E+02
  -6.070  0.6638E-01  0.4800E+02
  -6.060  0.7714E-01  0.4800E+02
  -6.050  0.8790E-01  0.4800E+02
  -6.040  0.9867E-01  0.4800E+02
  -6.030  0.1094E+00  0.4801E+02
  -6.020  0.1202E+00  0.4801E+02
  -6.010  0.1309E+00  0.4801E+02
  -6.000  0.1417E+00  0.4801E+02
  -5.990  0.1525E+00  0.4801E+02
  -5.980  0.1632E+00  0.4801E+02
  -5.970  0.1740E+00  0.4801E+02
  -5.960  0.1848E+00  0.4802E+02
  -5.950  0.1955E+00  0.4802E+02
  -5.940  0.2063E+00  0.4802E+02
  -5.930  0.2170E+00  0.4802E+02
  -5.920  0.2278E+00  0.4802E+02
  -5.910  0.2386E+00  0.4803E+02
  -5.900  0.2493E+00  0.4803E+02
  -5.890  0.2601E+00  0.4803E+02
  -5.880  0.2988E+00  0.4803E+02
  -5.870  0.4258E+00  0.4804E+02
  -5.860  0.5528E+00  0.4804E+02
  -5.850  0.6798E+00  0.4805E+02
  -5.840  0.8068E+00  0.4806E+02
  -5.830  0.9338E+00  0.4806E+02
  -5.820  0.1061E+01  0.4807E+02
  -5.810  0.1346E+01  0.4809E+02
  -5.800  0.1435E+01  0.4810E+02
  -5.790  0.1516E+01  0.4812E+02
  -5.780  0.1597E+01  0.4813E+02
  -5.770  0.1678E+01  0.4815E+02
  -5.760  0.1759E+01  0.4817E+02
  -5.750  0.1840E+01  0.4818E+02
  -5.740  0.1921E+01  0.4820E+02
  -5.730  0.2002E+01  0.4822E+02
  -5.720  0.2084E+01  0.4824E+02
  -5.710  0.2165E+01  0.4826E+02
  -5.700  0.2246E+01  0.4829E+02
  -5.690  0.2327E+01  0.4831E+02
  -5.680  0.2408E+01  0.4833E+02
  -5.670  0.2489E+01  0.4836E+02
  -5.660  0.2233E+01  0.4838E+02
  -5.650  0.1863E+01  0.4840E+02
  -5.640  0.1786E+01  0.4842E+02
  -5.630  0.1784E+01  0.4844E+02
  -5.620  0.1783E+01  0.4845E+02
  -5.610  0.1781E+01  0.4847E+02
  -5.600  0.1780E+01  0.4849E+02
  -5.590  0.1778E+01  0.4851E+02
  -5.580  0.1776E+01  0.4853E+02
  -5.570  0.1775E+01  0.4854E+02
  -5.560  0.1773E+01  0.4856E+02
  -5.550  0.1771E+01  0.4858E+02
  -5.540  0.1770E+01  0.4860E+02
  -5.530  0.1768E+01  0.4861E+02
  -5.520  0.1767E+01  0.4863E+02
  -5.510  0.1765E+01  0.4865E+02
  -5.500  0.1736E+01  0.4867E+02
  -5.490  0.1746E+01  0.4868E+02
  -5.480  0.1756E+01  0.4870E+02
  -5.470  0.1766E+01  0.4872E+02
  -5.460  0.1768E+01  0.4874E+02
  -5.450  0.1765E+01  0.4875E+02
  -5.440  0.1759E+01  0.4877E+02
  -5.430  0.1750E+01  0.4879E+02
  -5.420  0.1742E+01  0.4881E+02
  -5.410  0.1743E+01  0.4882E+02
  -5.400  0.1744E+01  0.4884E+02
  -5.390  0.1744E+01  0.4886E+02
  -5.380  0.1745E+01  0.4888E+02
  -5.370  0.3083E+01  0.4889E+02
  -5.360  0.2810E+01  0.4892E+02
  -5.350  0.2538E+01  0.4895E+02
  -5.340  0.2266E+01  0.4897E+02
  -5.330  0.2122E+01  0.4900E+02
  -5.320  0.2095E+01  0.4902E+02
  -5.310  0.2068E+01  0.4904E+02
  -5.300  0.2041E+01  0.4906E+02
  -5.290  0.2014E+01  0.4908E+02
  -5.280  0.1987E+01  0.4910E+02
  -5.270  0.1960E+01  0.4912E+02
  -5.260  0.1933E+01  0.4914E+02
  -5.250  0.1906E+01  0.4916E+02
  -5.240  0.1886E+01  0.4918E+02
  -5.230  0.1867E+01  0.4920E+02
  -5.220  0.1849E+01  0.4921E+02
  -5.210  0.1830E+01  0.4923E+02
  -5.200  0.1812E+01  0.4925E+02
  -5.190  0.1794E+01  0.4927E+02
  -5.180  0.1775E+01  0.4929E+02
  -5.170  0.1757E+01  0.4930E+02
  -5.160  0.1751E+01  0.4932E+02
  -5.150  0.1790E+01  0.4934E+02
  -5.140  0.1829E+01  0.4936E+02
  -5.130  0.1868E+01  0.4938E+02
  -5.120  0.1908E+01  0.4939E+02
  -5.110  0.1947E+01  0.4941E+02
  -5.100  0.1986E+01  0.4943E+02
  -5.090  0.2026E+01  0.4945E+02
  -5.080  0.2072E+01  0.4947E+02
  -5.070  0.2145E+01  0.4950E+02
  -5.060  0.2217E+01  0.4952E+02
  -5.050  0.2837E+01  0.4954E+02
  -5.040  0.3225E+01  0.4957E+02
  -5.030  0.3642E+01  0.4961E+02
  -5.020  0.3963E+01  0.4965E+02
  -5.010  0.3985E+01  0.4969E+02
  -5.000  0.4006E+01  0.4973E+02
  -4.990  0.4028E+01  0.4977E+02
  -4.980  0.4049E+01  0.4981E+02
  -4.970  0.5496E+01  0.4986E+02
  -4.960  0.5241E+01  0.4991E+02
  -4.950  0.3506E+01  0.4996E+02
  -4.940  0.1770E+01  0.4998E+02
  -4.930  0.1890E+01  0.5000E+02
  -4.920  0.2423E+01  0.5002E+02
  -4.910  0.2955E+01  0.5005E+02
  -4.900  0.3168E+01  0.5008E+02
  -4.890  0.3005E+01  0.5011E+02
  -4.880  0.2842E+01  0.5014E+02
  -4.870  0.2679E+01  0.5017E+02
  -4.860  0.2668E+01  0.5019E+02
  -4.850  0.2818E+01  0.5022E+02
  -4.840  0.2969E+01  0.5025E+02
  -4.830  0.3651E+01  0.5029E+02
  -4.820  0.3620E+01  0.5032E+02
  -4.810  0.3589E+01  0.5036E+02
  -4.800  0.3559E+01  0.5040E+02
  -4.790  0.3528E+01  0.5043E+02
  -4.780  0.3556E+01  0.5047E+02
  -4.770  0.3534E+01  0.5050E+02
  -4.760  0.3512E+01  0.5054E+02
  -4.750  0.3490E+01  0.5057E+02
  -4.740  0.3467E+01  0.5061E+02
  -4.730  0.3445E+01  0.5064E+02
  -4.720  0.3425E+01  0.5068E+02
  -4.710  0.3410E+01  0.5071E+02
  -4.700  0.3394E+01  0.5074E+02
  -4.690  0.3379E+01  0.5078E+02
  -4.680  0.3440E+01  0.5081E+02
  -4.670  0.3408E+01  0.5085E+02
  -4.660  0.3384E+01  0.5088E+02
  -4.650  0.3385E+01  0.5091E+02
  -4.640  0.3387E+01  0.5095E+02
  -4.630  0.3388E+01  0.5098E+02
  -4.620  0.3390E+01  0.5102E+02
  -4.610  0.3393E+01  0.5105E+02
  -4.600  0.3401E+01  0.5108E+02
  -4.590  0.3418E+01  0.5112E+02
  -4.580  0.3468E+01  0.5115E+02
  -4.570  0.3519E+01  0.5119E+02
  -4.560  0.4158E+01  0.5122E+02
  -4.550  0.4014E+01  0.5126E+02
  -4.540  0.3868E+01  0.5130E+02
  -4.530  0.3720E+01  0.5134E+02
  -4.520  0.3571E+01  0.5138E+02
  -4.510  0.3423E+01  0.5141E+02
  -4.500  0.2984E+01  0.5145E+02
  -4.490  0.2767E+01  0.5148E+02
  -4.480  0.2699E+01  0.5150E+02
  -4.470  0.2637E+01  0.5153E+02
  -4.460  0.3397E+01  0.5156E+02
  -4.450  0.4324E+01  0.5160E+02
  -4.440  0.5050E+01  0.5165E+02
  -4.430  0.4777E+01  0.5169E+02
  -4.420  0.6733E+01  0.5178E+02
  -4.410  0.5464E+01  0.5184E+02
  -4.400  0.4188E+01  0.5189E+02
  -4.390  0.2949E+01  0.5193E+02
  -4.380  0.2414E+01  0.5195E+02
  -4.370  0.1880E+01  0.5198E+02
  -4.360  0.1346E+01  0.5199E+02
  -4.350  0.7722E-02  0.5200E+02
  -4.340  0.0000E+00  0.5200E+02
  -4.330  0.0000E+00  0.5200E+02
  -4.320  0.0000E+00  0.5200E+02
  -4.310  0.0000E+00  0.5200E+02
  -4.300  0.0000E+00  0.5200E+02
  -4.290  0.0000E+00  0.5200E+02
  -4.280  0.0000E+00  0.5200E+02
  -4.270  0.0000E+00  0.5200E+02
  -4.260  0.0000E+00  0.5200E+02
  -4.250  0.0000E+00  0.5200E+02
  -4.240  0.0000E+00  0.5200E+02
  -4.230  0.0000E+00  0.5200E+02
  -4.220  0.0000E+00  0.5200E+02
  -4.210  0.0000E+00  0.5200E+02
  -4.200  0.0000E+00  0.5200E+02
  -4.190  0.0000E+00  0.5200E+02
  -4.180  0.0000E+00  0.5200E+02
  -4.170  0.0000E+00  0.5200E+02
  -4.160  0.0000E+00  0.5200E+02
  -4.150  0.0000E+00  0.5200E+02
  -4.140  0.0000E+00  0.5200E+02
  -4.130  0.0000E+00  0.5200E+02
  -4.120  0.0000E+00  0.5200E+02
  -4.110  0.0000E+00  0.5200E+02
  -4.100  0.0000E+00  0.5200E+02
  -4.090  0.0000E+00  0.5200E+02
  -4.080  0.0000E+00  0.5200E+02
  -4.070  0.0000E+00  0.5200E+02
  -4.060  0.0000E+00  0.5200E+02
  -4.050  0.0000E+00  0.5200E+02
  -4.040  0.0000E+00  0.5200E+02
  -4.030  0.0000E+00  0.5200E+02
  -4.020  0.0000E+00  0.5200E+02
  -4.010  0.0000E+00  0.5200E+02
  -4.000  0.0000E+00  0.5200E+02
  -3.990  0.0000E+00  0.5200E+02
  -3.980  0.0000E+00  0.5200E+02
  -3.970  0.0000E+00  0.5200E+02
  -3.960  0.0000E+00  0.5200E+02
  -3.950  0.0000E+00  0.5200E+02
  -3.940  0.0000E+00  0.5200E+02
  -3.930  0.0000E+00  0.5200E+02
  -3.920  0.0000E+00  0.5200E+02
  -3.910  0.0000E+00  0.5200E+02
  -3.900  0.0000E+00  0.5200E+02
  -3.890  0.0000E+00  0.5200E+02
  -3.880  0.0000E+00  0.5200E+02
  -3.870  0.0000E+00  0.5200E+02
  -3.860  0.0000E+00  0.5200E+02
  -3.850  0.0000E+00  0.5200E+02
  -3.840  0.0000E+00  0.5200E+02
  -3.830  0.0000E+00  0.5200E+02
  -3.820  0.0000E+00  0.5200E+02
  -3.810  0.0000E+00  0.5200E+02
  -3.800  0.0000E+00  0.5200E+02
  -3.790  0.0000E+00  0.5200E+02
  -3.780  0.0000E+00  0.5200E+02
  -3.770  0.0000E+00  0.5200E+02
  -3.760  0.0000E+00  0.5200E+02
  -3.750  0.0000E+00  0.5200E+02
  -3.740  0.0000E+00  0.5200E+02
  -3.730  0.0000E+00  0.5200E+02
  -3.720  0.0000E+00  0.5200E+02
  -3.710  0.0000E+00  0.5200E+02
  -3.700  0.0000E+00  0.5200E+02
  -3.690  0.0000E+00  0.5200E+02
  -3.680  0.0000E+00  0.5200E+02
  -3.670  0.0000E+00  0.5200E+02
  -3.660  0.0000E+00  0.5200E+02
  -3.650  0.0000E+00  0.5200E+02
  -3.640  0.2994E+00  0.5200E+02
  -3.630  0.3313E+00  0.5200E+02
  -3.620  0.3631E+00  0.5201E+02
  -3.610  0.3950E+00  0.5201E+02
  -3.600  0.4269E+00  0.5202E+02
  -3.590  0.4587E+00  0.5202E+02
  -3.580  0.4906E+00  0.5202E+02
  -3.570  0.5224E+00  0.5203E+02
  -3.560  0.5543E+00  0.5203E+02
  -3.550  0.5861E+00  0.5204E+02
  -3.540  0.6180E+00  0.5205E+02
  -3.530  0.6498E+00  0.5205E+02
  -3.520  0.6817E+00  0.5206E+02
  -3.510  0.7135E+00  0.5207E+02
  -3.500  0.7454E+00  0.5207E+02
  -3.490  0.7773E+00  0.5208E+02
  -3.480  0.8091E+00  0.5209E+02
  -3.470  0.8354E+00  0.5210E+02
  -3.460  0.8447E+00  0.5211E+02
  -3.450  0.8223E+00  0.5211E+02
  -3.440  0.7993E+00  0.5212E+02
  -3.430  0.7762E+00  0.5213E+02
  -3.420  0.7531E+00  0.5214E+02
  -3.410  0.7300E+00  0.5215E+02
  -3.400  0.7070E+00  0.5215E+02
  -3.390  0.6839E+00  0.5216E+02
  -3.380  0.6866E+00  0.5217E+02
  -3.370  0.6925E+00  0.5217E+02
  -3.360  0.6984E+00  0.5218E+02
  -3.350  0.7043E+00  0.5219E+02
  -3.340  0.7102E+00  0.5219E+02
  -3.330  0.7161E+00  0.5220E+02
  -3.320  0.7220E+00  0.5221E+02
  -3.310  0.7279E+00  0.5222E+02
  -3.300  0.7338E+00  0.5222E+02
  -3.290  0.7397E+00  0.5223E+02
  -3.280  0.7456E+00  0.5224E+02
  -3.270  0.7515E+00  0.5225E+02
  -3.260  0.7574E+00  0.5225E+02
  -3.250  0.7633E+00  0.5226E+02
  -3.240  0.7692E+00  0.5227E+02
  -3.230  0.7751E+00  0.5228E+02
  -3.220  0.7810E+00  0.5228E+02
  -3.210  0.7869E+00  0.5229E+02
  -3.200  0.7928E+00  0.5230E+02
  -3.190  0.7987E+00  0.5231E+02
  -3.180  0.8046E+00  0.5232E+02
  -3.170  0.8103E+00  0.5232E+02
  -3.160  0.8093E+00  0.5233E+02
  -3.150  0.8082E+00  0.5234E+02
  -3.140  0.8072E+00  0.5235E+02
  -3.130  0.8085E+00  0.5236E+02
  -3.120  0.8143E+00  0.5236E+02
  -3.110  0.8202E+00  0.5237E+02
  -3.100  0.8261E+00  0.5238E+02
  -3.090  0.8320E+00  0.5239E+02
  -3.080  0.8378E+00  0.5240E+02
  -3.070  0.8437E+00  0.5241E+02
  -3.060  0.8496E+00  0.5241E+02
  -3.050  0.8555E+00  0.5242E+02
  -3.040  0.8613E+00  0.5243E+02
  -3.030  0.8672E+00  0.5244E+02
  -3.020  0.8731E+00  0.5245E+02
  -3.010  0.8790E+00  0.5246E+02
  -3.000  0.8848E+00  0.5247E+02
  -2.990  0.8907E+00  0.5247E+02
  -2.980  0.8701E+00  0.5248E+02
  -2.970  0.8709E+00  0.5249E+02
  -2.960  0.8717E+00  0.5250E+02
  -2.950  0.8725E+00  0.5251E+02
  -2.940  0.8733E+00  0.5252E+02
  -2.930  0.8741E+00  0.5253E+02
  -2.920  0.8749E+00  0.5254E+02
  -2.910  0.8757E+00  0.5254E+02
  -2.900  0.8765E+00  0.5255E+02
  -2.890  0.8773E+00  0.5256E+02
  -2.880  0.8786E+00  0.5257E+02
  -2.870  0.8820E+00  0.5258E+02
  -2.860  0.8853E+00  0.5259E+02
  -2.850  0.8886E+00  0.5260E+02
  -2.840  0.8919E+00  0.5261E+02
  -2.830  0.8953E+00  0.5262E+02
  -2.820  0.8986E+00  0.5262E+02
  -2.810  0.9019E+00  0.5263E+02
  -2.800  0.9053E+00  0.5264E+02
  -2.790  0.9088E+00  0.5265E+02
  -2.780  0.9135E+00  0.5266E+02
  -2.770  0.9182E+00  0.5267E+02
  -2.760  0.9229E+00  0.5268E+02
  -2.750  0.9276E+00  0.5269E+02
  -2.740  0.9323E+00  0.5270E+02
  -2.730  0.9370E+00  0.5271E+02
  -2.720  0.9418E+00  0.5272E+02
  -2.710  0.9465E+00  0.5273E+02
  -2.700  0.9512E+00  0.5274E+02
  -2.690  0.9559E+00  0.5274E+02
  -2.680  0.9606E+00  0.5275E+02
  -2.670  0.9662E+00  0.5276E+02
  -2.660  0.9749E+00  0.5277E+02
  -2.650  0.9836E+00  0.5278E+02
  -2.640  0.9923E+00  0.5279E+02
  -2.630  0.1001E+01  0.5280E+02
  -2.620  0.1010E+01  0.5281E+02
  -2.610  0.1019E+01  0.5282E+02
  -2.600  0.1028E+01  0.5283E+02
  -2.590  0.1037E+01  0.5284E+02
  -2.580  0.1046E+01  0.5285E+02
  -2.570  0.1055E+01  0.5286E+02
  -2.560  0.1064E+01  0.5288E+02
  -2.550  0.1073E+01  0.5289E+02
  -2.540  0.1081E+01  0.5290E+02
  -2.530  0.1090E+01  0.5291E+02
  -2.520  0.1099E+01  0.5292E+02
  -2.510  0.1108E+01  0.5293E+02
  -2.500  0.1117E+01  0.5294E+02
  -2.490  0.1126E+01  0.5295E+02
  -2.480  0.1135E+01  0.5296E+02
  -2.470  0.1144E+01  0.5297E+02
  -2.460  0.1153E+01  0.5299E+02
  -2.450  0.1162E+01  0.5300E+02
  -2.440  0.1171E+01  0.5301E+02
  -2.430  0.1180E+01  0.5302E+02
  -2.420  0.1188E+01  0.5303E+02
  -2.410  0.1197E+01  0.5305E+02
  -2.400  0.1206E+01  0.5306E+02
  -2.390  0.1215E+01  0.5307E+02
  -2.380  0.1224E+01  0.5308E+02
  -2.370  0.1229E+01  0.5309E+02
  -2.360  0.1234E+01  0.5311E+02
  -2.350  0.1239E+01  0.5312E+02
  -2.340  0.1245E+01  0.5313E+02
  -2.330  0.1254E+01  0.5314E+02
  -2.320  0.2175E+01  0.5317E+02
  -2.310  0.1933E+01  0.5319E+02
  -2.300  0.1691E+01  0.5320E+02
  -2.290  0.1449E+01  0.5322E+02
  -2.280  0.1207E+01  0.5323E+02
  -2.270  0.9759E+00  0.5327E+02
  -2.260  0.9706E+00  0.5328E+02
  -2.250  0.9654E+00  0.5329E+02
  -2.240  0.9602E+00  0.5330E+02
  -2.230  0.9550E+00  0.5331E+02
  -2.220  0.9497E+00  0.5332E+02
  -2.210  0.9445E+00  0.5333E+02
  -2.200  0.9393E+00  0.5334E+02
  -2.190  0.9341E+00  0.5335E+02
  -2.180  0.9288E+00  0.5336E+02
  -2.170  0.9236E+00  0.5337E+02
  -2.160  0.9184E+00  0.5337E+02
  -2.150  0.9131E+00  0.5338E+02
  -2.140  0.9079E+00  0.5339E+02
  -2.130  0.9027E+00  0.5340E+02
  -2.120  0.8975E+00  0.5341E+02
  -2.110  0.8922E+00  0.5342E+02
  -2.100  0.8870E+00  0.5343E+02
  -2.090  0.8818E+00  0.5344E+02
  -2.080  0.8766E+00  0.5345E+02
  -2.070  0.8713E+00  0.5346E+02
  -2.060  0.8693E+00  0.5346E+02
  -2.050  0.8684E+00  0.5347E+02
  -2.040  0.8674E+00  0.5348E+02
  -2.030  0.8665E+00  0.5349E+02
  -2.020  0.8655E+00  0.5350E+02
  -2.010  0.8646E+00  0.5351E+02
  -2.000  0.8636E+00  0.5352E+02
  -1.990  0.8627E+00  0.5352E+02
  -1.980  0.8618E+00  0.5353E+02
  -1.970  0.8608E+00  0.5354E+02
  -1.960  0.8599E+00  0.5355E+02
  -1.950  0.8897E+00  0.5356E+02
  -1.940  0.9956E+00  0.5357E+02
  -1.930  0.1102E+01  0.5358E+02
  -1.920  0.1207E+01  0.5359E+02
  -1.910  0.1313E+01  0.5360E+02
  -1.900  0.1419E+01  0.5362E+02
  -1.890  0.1543E+01  0.5363E+02
  -1.880  0.1544E+01  0.5365E+02
  -1.870  0.1644E+01  0.5366E+02
  -1.860  0.1745E+01  0.5368E+02
  -1.850  0.1845E+01  0.5370E+02
  -1.840  0.1945E+01  0.5372E+02
  -1.830  0.2045E+01  0.5374E+02
  -1.820  0.2145E+01  0.5376E+02
  -1.810  0.2246E+01  0.5378E+02
  -1.800  0.2346E+01  0.5380E+02
  -1.790  0.2647E+00  0.5390E+02
  -1.780  0.2611E+00  0.5390E+02
  -1.770  0.2575E+00  0.5390E+02
  -1.760  0.2539E+00  0.5390E+02
  -1.750  0.2503E+00  0.5391E+02
  -1.740  0.2467E+00  0.5391E+02
  -1.730  0.2446E+00  0.5391E+02
  -1.720  0.4156E+00  0.5392E+02
  -1.710  0.5866E+00  0.5392E+02
  -1.700  0.7790E+00  0.5393E+02
  -1.690  0.1049E+01  0.5394E+02
  -1.680  0.1320E+01  0.5395E+02
  -1.670  0.5349E+00  0.5395E+02
  -1.660  0.6296E+00  0.5396E+02
  -1.650  0.7244E+00  0.5397E+02
  -1.640  0.8191E+00  0.5397E+02
  -1.630  0.9138E+00  0.5398E+02
  -1.620  0.1092E+01  0.5399E+02
  -1.610  0.1746E+01  0.5401E+02
  -1.600  0.2551E+01  0.5403E+02
  -1.590  0.2977E+01  0.5406E+02
  -1.580  0.3329E+01  0.5409E+02
  -1.570  0.3681E+01  0.5412E+02
  -1.560  0.4033E+01  0.5416E+02
  -1.550  0.4385E+01  0.5420E+02
  -1.540  0.3538E+01  0.5424E+02
  -1.530  0.3712E+01  0.5427E+02
  -1.520  0.3620E+01  0.5431E+02
  -1.510  0.3244E+01  0.5435E+02
  -1.500  0.2868E+01  0.5438E+02
  -1.490  0.2492E+01  0.5440E+02
  -1.480  0.2314E+01  0.5443E+02
  -1.470  0.2279E+01  0.5445E+02
  -1.460  0.2244E+01  0.5447E+02
  -1.450  0.2209E+01  0.5450E+02
  -1.440  0.2174E+01  0.5452E+02
  -1.430  0.2193E+01  0.5454E+02
  -1.420  0.2265E+01  0.5456E+02
  -1.410  0.2336E+01  0.5458E+02
  -1.400  0.2407E+01  0.5461E+02
  -1.390  0.2477E+01  0.5463E+02
  -1.380  0.2548E+01  0.5466E+02
  -1.370  0.2619E+01  0.5468E+02
  -1.360  0.2689E+01  0.5471E+02
  -1.350  0.1906E+01  0.5474E+02
  -1.340  0.1856E+01  0.5475E+02
  -1.330  0.1805E+01  0.5477E+02
  -1.320  0.1755E+01  0.5479E+02
  -1.310  0.1689E+01  0.5481E+02
  -1.300  0.1607E+01  0.5482E+02
  -1.290  0.1575E+01  0.5484E+02
  -1.280  0.1556E+01  0.5486E+02
  -1.270  0.1536E+01  0.5487E+02
  -1.260  0.1517E+01  0.5489E+02
  -1.250  0.1498E+01  0.5490E+02
  -1.240  0.1479E+01  0.5492E+02
  -1.230  0.1635E+01  0.5493E+02
  -1.220  0.1948E+01  0.5495E+02
  -1.210  0.2261E+01  0.5497E+02
  -1.200  0.2585E+01  0.5499E+02
  -1.190  0.2911E+01  0.5502E+02
  -1.180  0.3239E+01  0.5505E+02
  -1.170  0.3568E+01  0.5509E+02
  -1.160  0.3896E+01  0.5512E+02
  -1.150  0.4225E+01  0.5517E+02
  -1.140  0.4630E+01  0.5521E+02
  -1.130  0.4510E+01  0.5526E+02
  -1.120  0.4236E+01  0.5530E+02
  -1.110  0.3962E+01  0.5534E+02
  -1.100  0.3688E+01  0.5538E+02
  -1.090  0.3414E+01  0.5541E+02
  -1.080  0.3140E+01  0.5545E+02
  -1.070  0.2982E+01  0.5548E+02
  -1.060  0.2968E+01  0.5551E+02
  -1.050  0.4089E+01  0.5554E+02
  -1.040  0.5210E+01  0.5559E+02
  -1.030  0.2614E+01  0.5564E+02
  -1.020  0.2590E+01  0.5566E+02
  -1.010  0.2578E+01  0.5569E+02
  -1.000  0.2592E+01  0.5572E+02
  -0.990  0.2607E+01  0.5574E+02
  -0.980  0.2622E+01  0.5577E+02
  -0.970  0.2637E+01  0.5579E+02
  -0.960  0.2651E+01  0.5582E+02
  -0.950  0.2666E+01  0.5585E+02
  -0.940  0.2681E+01  0.5587E+02
  -0.930  0.2695E+01  0.5590E+02
  -0.920  0.2713E+01  0.5593E+02
  -0.910  0.2731E+01  0.5596E+02
  -0.900  0.2750E+01  0.5598E+02
  -0.890  0.2768E+01  0.5601E+02
  -0.880  0.2786E+01  0.5604E+02
  -0.870  0.2687E+01  0.5607E+02
  -0.860  0.2687E+01  0.5609E+02
  -0.850  0.2691E+01  0.5612E+02
  -0.840  0.2695E+01  0.5615E+02
  -0.830  0.2701E+01  0.5617E+02
  -0.820  0.2799E+01  0.5620E+02
  -0.810  0.2897E+01  0.5623E+02
  -0.800  0.2996E+01  0.5626E+02
  -0.790  0.3128E+01  0.5629E+02
  -0.780  0.3846E+01  0.5635E+02
  -0.770  0.4151E+01  0.5639E+02
  -0.760  0.4457E+01  0.5643E+02
  -0.750  0.4751E+01  0.5648E+02
  -0.740  0.5045E+01  0.5653E+02
  -0.730  0.5338E+01  0.5658E+02
  -0.720  0.5630E+01  0.5664E+02
  -0.710  0.5291E+01  0.5669E+02
  -0.700  0.5248E+01  0.5674E+02
  -0.690  0.5205E+01  0.5680E+02
  -0.680  0.5132E+01  0.5685E+02
  -0.670  0.3949E+01  0.5689E+02
  -0.660  0.3824E+01  0.5693E+02
  -0.650  0.3699E+01  0.5697E+02
  -0.640  0.3574E+01  0.5700E+02
  -0.630  0.3419E+01  0.5704E+02
  -0.620  0.3061E+01  0.5707E+02
  -0.610  0.2704E+01  0.5710E+02
  -0.600  0.2399E+01  0.5713E+02
  -0.590  0.2315E+01  0.5715E+02
  -0.580  0.2231E+01  0.5717E+02
  -0.570  0.2147E+01  0.5719E+02
  -0.560  0.2063E+01  0.5721E+02
  -0.550  0.1979E+01  0.5723E+02
  -0.540  0.1897E+01  0.5725E+02
  -0.530  0.1874E+01  0.5727E+02
  -0.520  0.1858E+01  0.5729E+02
  -0.510  0.1843E+01  0.5731E+02
  -0.500  0.1828E+01  0.5733E+02
  -0.490  0.1813E+01  0.5735E+02
  -0.480  0.1797E+01  0.5736E+02
  -0.470  0.1782E+01  0.5738E+02
  -0.460  0.2240E+01  0.5740E+02
  -0.450  0.3166E+01  0.5743E+02
  -0.440  0.4093E+01  0.5746E+02
  -0.430  0.2827E+01  0.5750E+02
  -0.420  0.2751E+01  0.5753E+02
  -0.410  0.2675E+01  0.5755E+02
  -0.400  0.2599E+01  0.5758E+02
  -0.390  0.2530E+01  0.5761E+02
  -0.380  0.2502E+01  0.5763E+02
  -0.370  0.2431E+01  0.5766E+02
  -0.360  0.2352E+01  0.5768E+02
  -0.350  0.2274E+01  0.5770E+02
  -0.340  0.2195E+01  0.5772E+02
  -0.330  0.2117E+01  0.5775E+02
  -0.320  0.2038E+01  0.5777E+02
  -0.310  0.1999E+01  0.5779E+02
  -0.300  0.2006E+01  0.5781E+02
  -0.290  0.2024E+01  0.5783E+02
  -0.280  0.2049E+01  0.5785E+02
  -0.270  0.2104E+01  0.5787E+02
  -0.260  0.2103E+01  0.5789E+02
  -0.250  0.2103E+01  0.5791E+02
  -0.240  0.2103E+01  0.5793E+02
  -0.230  0.2102E+01  0.5795E+02
  -0.220  0.2102E+01  0.5797E+02
  -0.210  0.2101E+01  0.5799E+02
  -0.200  0.2101E+01  0.5802E+02
  -0.190  0.2101E+01  0.5804E+02
  -0.180  0.2100E+01  0.5806E+02
  -0.170  0.2104E+01  0.5808E+02
  -0.160  0.1895E+01  0.5810E+02
  -0.150  0.1899E+01  0.5812E+02
  -0.140  0.2925E+01  0.5814E+02
  -0.130  0.2564E+01  0.5817E+02
  -0.120  0.2203E+01  0.5819E+02
  -0.110  0.1842E+01  0.5821E+02
  -0.100  0.1524E+01  0.5823E+02
  -0.090  0.2277E+01  0.5825E+02
  -0.080  0.2735E+01  0.5828E+02
  -0.070  0.3193E+01  0.5830E+02
  -0.060  0.1409E+01  0.5832E+02
  -0.050  0.1416E+01  0.5834E+02
  -0.040  0.1422E+01  0.5835E+02
  -0.030  0.1429E+01  0.5836E+02
  -0.020  0.1435E+01  0.5838E+02
  -0.010  0.2329E+01  0.5842E+02
  -0.000  0.1304E+01  0.5843E+02
   0.010  0.1303E+01  0.5844E+02
   0.020  0.1303E+01  0.5846E+02
   0.030  0.1303E+01  0.5847E+02
   0.040  0.1302E+01  0.5848E+02
   0.050  0.1304E+01  0.5850E+02
   0.060  0.1311E+01  0.5851E+02
   0.070  0.1317E+01  0.5852E+02
   0.080  0.1323E+01  0.5853E+02
   0.090  0.1330E+01  0.5855E+02
   0.100  0.1336E+01  0.5856E+02
   0.110  0.1343E+01  0.5857E+02
   0.120  0.1349E+01  0.5859E+02
   0.130  0.1356E+01  0.5860E+02
   0.140  0.1362E+01  0.5862E+02
   0.150  0.1368E+01  0.5863E+02
   0.160  0.1366E+01  0.5864E+02
   0.170  0.1360E+01  0.5866E+02
   0.180  0.1354E+01  0.5867E+02
   0.190  0.1347E+01  0.5868E+02
   0.200  0.1341E+01  0.5870E+02
   0.210  0.1335E+01  0.5871E+02
   0.220  0.1329E+01  0.5872E+02
   0.230  0.1322E+01  0.5874E+02
   0.240  0.1316E+01  0.5875E+02
   0.250  0.1310E+01  0.5876E+02
   0.260  0.1303E+01  0.5878E+02
   0.270  0.1297E+01  0.5879E+02
   0.280  0.1291E+01  0.5880E+02
   0.290  0.1285E+01  0.5881E+02
   0.300  0.1278E+01  0.5883E+02
   0.310  0.1798E+01  0.5884E+02
   0.320  0.1775E+01  0.5886E+02
   0.330  0.1752E+01  0.5888E+02
   0.340  0.2678E+01  0.5890E+02
   0.350  0.2876E+01  0.5893E+02
   0.360  0.3074E+01  0.5896E+02
   0.370  0.3272E+01  0.5899E+02
   0.380  0.3532E+01  0.5903E+02
   0.390  0.6193E+01  0.5906E+02
   0.400  0.2915E+01  0.5912E+02
   0.410  0.2863E+01  0.5915E+02
   0.420  0.2811E+01  0.5918E+02
   0.430  0.2759E+01  0.5921E+02
   0.440  0.2707E+01  0.5924E+02
   0.450  0.2655E+01  0.5926E+02
   0.460  0.2603E+01  0.5929E+02
   0.470  0.2551E+01  0.5931E+02
   0.480  0.2499E+01  0.5934E+02
   0.490  0.2447E+01  0.5936E+02
   0.500  0.2395E+01  0.5939E+02
   0.510  0.2343E+01  0.5941E+02
   0.520  0.2291E+01  0.5944E+02
   0.530  0.2239E+01  0.5946E+02
   0.540  0.2170E+01  0.5948E+02
   0.550  0.2079E+01  0.5950E+02
   0.560  0.1984E+01  0.5952E+02
   0.570  0.1889E+01  0.5954E+02
   0.580  0.1794E+01  0.5956E+02
   0.590  0.1699E+01  0.5958E+02
   0.600  0.1625E+01  0.5959E+02
   0.610  0.1596E+01  0.5961E+02
   0.620  0.1567E+01  0.5963E+02
   0.630  0.1547E+01  0.5964E+02
   0.640  0.1544E+01  0.5966E+02
   0.650  0.1541E+01  0.5967E+02
   0.660  0.1538E+01  0.5969E+02
   0.670  0.1535E+01  0.5970E+02
   0.680  0.1531E+01  0.5972E+02
   0.690  0.1527E+01  0.5973E+02
   0.700  0.1518E+01  0.5975E+02
   0.710  0.1509E+01  0.5976E+02
   0.720  0.1499E+01  0.5978E+02
   0.730  0.1490E+01  0.5979E+02
   0.740  0.1481E+01  0.5981E+02
   0.750  0.1471E+01  0.5982E+02
   0.760  0.1462E+01  0.5984E+02
   0.770  0.1453E+01  0.5985E+02
   0.780  0.1443E+01  0.5987E+02
   0.790  0.1425E+01  0.5988E+02
   0.800  0.1413E+01  0.5990E+02
   0.810  0.1402E+01  0.5991E+02
   0.820  0.1393E+01  0.5992E+02
   0.830  0.1387E+01  0.5994E+02
   0.840  0.1381E+01  0.5995E+02
   0.850  0.1375E+01  0.5997E+02
   0.860  0.1369E+01  0.5998E+02
   0.870  0.1363E+01  0.5999E+02
   0.880  0.1357E+01  0.6001E+02
   0.890  0.1352E+01  0.6002E+02
   0.900  0.1346E+01  0.6003E+02
   0.910  0.1340E+01  0.6005E+02
   0.920  0.1334E+01  0.6006E+02
   0.930  0.1328E+01  0.6007E+02
   0.940  0.1322E+01  0.6009E+02
   0.950  0.1317E+01  0.6010E+02
   0.960  0.1311E+01  0.6011E+02
   0.970  0.1305E+01  0.6013E+02
   0.980  0.1299E+01  0.6014E+02
   0.990  0.1293E+01  0.6015E+02
   1.000  0.1287E+01  0.6017E+02
   1.010  0.1281E+01  0.6018E+02
   1.020  0.1273E+01  0.6019E+02
   1.030  0.1214E+01  0.6020E+02
   1.040  0.1211E+01  0.6022E+02
   1.050  0.1208E+01  0.6023E+02
   1.060  0.1205E+01  0.6024E+02
   1.070  0.1202E+01  0.6025E+02
   1.080  0.1199E+01  0.6026E+02
   1.090  0.1196E+01  0.6028E+02
   1.100  0.1192E+01  0.6029E+02
   1.110  0.1189E+01  0.6030E+02
   1.120  0.1186E+01  0.6031E+02
   1.130  0.1183E+01  0.6032E+02
   1.140  0.1180E+01  0.6034E+02
   1.150  0.1177E+01  0.6035E+02
   1.160  0.1174E+01  0.6036E+02
   1.170  0.1171E+01  0.6037E+02
   1.180  0.1168E+01  0.6038E+02
   1.190  0.1165E+01  0.6039E+02
   1.200  0.2914E+01  0.6041E+02
   1.210  0.2785E+01  0.6044E+02
   1.220  0.2657E+01  0.6047E+02
   1.230  0.2542E+01  0.6049E+02
   1.240  0.2429E+01  0.6052E+02
   1.250  0.2315E+01  0.6054E+02
   1.260  0.2832E+01  0.6057E+02
   1.270  0.2762E+01  0.6060E+02
   1.280  0.2692E+01  0.6062E+02
   1.290  0.2622E+01  0.6065E+02
   1.300  0.2552E+01  0.6068E+02
   1.310  0.2482E+01  0.6070E+02
   1.320  0.2412E+01  0.6073E+02
   1.330  0.2342E+01  0.6075E+02
   1.340  0.2271E+01  0.6077E+02
   1.350  0.2200E+01  0.6080E+02
   1.360  0.2130E+01  0.6082E+02
   1.370  0.2231E+01  0.6084E+02
   1.380  0.2410E+01  0.6086E+02
   1.390  0.2588E+01  0.6089E+02
   1.400  0.2767E+01  0.6091E+02
   1.410  0.2946E+01  0.6094E+02
   1.420  0.2340E+01  0.6097E+02
   1.430  0.2407E+01  0.6099E+02
   1.440  0.2473E+01  0.6102E+02
   1.450  0.2540E+01  0.6104E+02
   1.460  0.2606E+01  0.6107E+02
   1.470  0.2673E+01  0.6110E+02
   1.480  0.2739E+01  0.6112E+02
   1.490  0.2806E+01  0.6115E+02
   1.500  0.2872E+01  0.6118E+02
   1.510  0.2939E+01  0.6121E+02
   1.520  0.3005E+01  0.6124E+02
   1.530  0.3072E+01  0.6127E+02
   1.540  0.2994E+01  0.6130E+02
   1.550  0.2888E+01  0.6133E+02
   1.560  0.2797E+01  0.6136E+02
   1.570  0.2711E+01  0.6138E+02
   1.580  0.2964E+01  0.6141E+02
   1.590  0.2870E+01  0.6144E+02
   1.600  0.2777E+01  0.6147E+02
   1.610  0.2688E+01  0.6150E+02
   1.620  0.2599E+01  0.6152E+02
   1.630  0.2510E+01  0.6155E+02
   1.640  0.2420E+01  0.6157E+02
   1.650  0.2331E+01  0.6160E+02
   1.660  0.2257E+01  0.6162E+02
   1.670  0.2249E+01  0.6164E+02
   1.680  0.2241E+01  0.6166E+02
   1.690  0.2232E+01  0.6169E+02
   1.700  0.2223E+01  0.6171E+02
   1.710  0.2215E+01  0.6173E+02
   1.720  0.2236E+01  0.6175E+02
   1.730  0.2232E+01  0.6178E+02
   1.740  0.2227E+01  0.6180E+02
   1.750  0.2225E+01  0.6182E+02
   1.760  0.2227E+01  0.6184E+02
   1.770  0.2239E+01  0.6186E+02
   1.780  0.2252E+01  0.6189E+02
   1.790  0.2299E+01  0.6191E+02
   1.800  0.2347E+01  0.6193E+02
   1.810  0.2395E+01  0.6196E+02
   1.820  0.2443E+01  0.6198E+02
   1.830  0.2491E+01  0.6201E+02
   1.840  0.2538E+01  0.6203E+02
   1.850  0.1795E+01  0.6205E+02
   1.860  0.1803E+01  0.6207E+02
   1.870  0.1813E+01  0.6209E+02
   1.880  0.1825E+01  0.6211E+02
   1.890  0.1837E+01  0.6213E+02
   1.900  0.1846E+01  0.6214E+02
   1.910  0.1859E+01  0.6216E+02
   1.920  0.1880E+01  0.6218E+02
   1.930  0.1913E+01  0.6220E+02
   1.940  0.1996E+01  0.6222E+02
   1.950  0.2079E+01  0.6224E+02
   1.960  0.2163E+01  0.6226E+02
   1.970  0.2246E+01  0.6228E+02
   1.980  0.2329E+01  0.6231E+02
   1.990  0.2413E+01  0.6233E+02
   2.000  0.2496E+01  0.6235E+02
   2.010  0.2579E+01  0.6238E+02
   2.020  0.2662E+01  0.6241E+02
   2.030  0.2746E+01  0.6243E+02
   2.040  0.2829E+01  0.6246E+02
   2.050  0.2913E+01  0.6249E+02
   2.060  0.3001E+01  0.6252E+02
   2.070  0.3090E+01  0.6255E+02
   2.080  0.3179E+01  0.6258E+02
   2.090  0.3267E+01  0.6261E+02
   2.100  0.3366E+01  0.6265E+02
   2.110  0.3713E+01  0.6268E+02
   2.120  0.4210E+01  0.6272E+02
   2.130  0.4137E+01  0.6276E+02
   2.140  0.3545E+01  0.6280E+02
   2.150  0.3450E+01  0.6284E+02
   2.160  0.3432E+01  0.6287E+02
   2.170  0.3381E+01  0.6291E+02
   2.180  0.3244E+01  0.6294E+02
   2.190  0.3107E+01  0.6297E+02
   2.200  0.2970E+01  0.6300E+02
   2.210  0.2832E+01  0.6303E+02
   2.220  0.2582E+01  0.6306E+02
   2.230  0.2586E+01  0.6308E+02
   2.240  0.4761E+01  0.6312E+02
   2.250  0.5914E+01  0.6317E+02
   2.260  0.6436E+01  0.6324E+02
   2.270  0.6959E+01  0.6330E+02
   2.280  0.7481E+01  0.6337E+02
   2.290  0.8003E+01  0.6345E+02
   2.300  0.1102E+02  0.6355E+02
   2.310  0.1126E+02  0.6366E+02
   2.320  0.1043E+02  0.6377E+02
   2.330  0.5242E+01  0.6384E+02
   2.340  0.5979E+01  0.6390E+02
   2.350  0.5674E+01  0.6402E+02
   2.360  0.8800E+01  0.6409E+02
   2.370  0.9892E+01  0.6418E+02
   2.380  0.1190E+02  0.6429E+02
   2.390  0.4875E+01  0.6435E+02
   2.400  0.3023E+01  0.6439E+02
   2.410  0.1412E+01  0.6441E+02
   2.420  0.1315E+01  0.6443E+02
   2.430  0.1218E+01  0.6444E+02
   2.440  0.1121E+01  0.6445E+02
   2.450  0.1024E+01  0.6446E+02
   2.460  0.9273E+00  0.6447E+02
   2.470  0.8702E+00  0.6448E+02
   2.480  0.8520E+00  0.6449E+02
   2.490  0.8339E+00  0.6450E+02
   2.500  0.8157E+00  0.6451E+02
   2.510  0.7975E+00  0.6452E+02
   2.520  0.7794E+00  0.6452E+02
   2.530  0.7714E+00  0.6453E+02
   2.540  0.7586E+00  0.6454E+02
   2.550  0.7551E+00  0.6455E+02
   2.560  0.7515E+00  0.6455E+02
   2.570  0.7479E+00  0.6456E+02
   2.580  0.7444E+00  0.6457E+02
   2.590  0.7408E+00  0.6458E+02
   2.600  0.7373E+00  0.6458E+02
   2.610  0.7337E+00  0.6459E+02
   2.620  0.7302E+00  0.6460E+02
   2.630  0.7266E+00  0.6461E+02
   2.640  0.7231E+00  0.6461E+02
   2.650  0.7195E+00  0.6462E+02
   2.660  0.7179E+00  0.6463E+02
   2.670  0.7202E+00  0.6463E+02
   2.680  0.7226E+00  0.6464E+02
   2.690  0.7249E+00  0.6465E+02
   2.700  0.7273E+00  0.6466E+02
   2.710  0.7297E+00  0.6466E+02
   2.720  0.7320E+00  0.6467E+02
   2.730  0.7344E+00  0.6468E+02
   2.740  0.7367E+00  0.6469E+02
   2.750  0.7391E+00  0.6469E+02
   2.760  0.7414E+00  0.6470E+02
   2.770  0.7438E+00  0.6471E+02
   2.780  0.7461E+00  0.6471E+02
   2.790  0.7587E+00  0.6472E+02
   2.800  0.8164E+00  0.6473E+02
   2.810  0.7247E+01  0.6475E+02
   2.820  0.1380E+01  0.6478E+02
   2.830  0.1614E+01  0.6479E+02
   2.840  0.1847E+01  0.6481E+02
   2.850  0.2047E+01  0.6483E+02
   2.860  0.2053E+01  0.6485E+02
   2.870  0.2198E+01  0.6487E+02
   2.880  0.2343E+01  0.6489E+02
   2.890  0.2489E+01  0.6492E+02
   2.900  0.2634E+01  0.6494E+02
   2.910  0.2838E+01  0.6497E+02
   2.920  0.2963E+01  0.6500E+02
   2.930  0.2972E+01  0.6503E+02
   2.940  0.2980E+01  0.6506E+02
   2.950  0.2989E+01  0.6509E+02
   2.960  0.4112E+01  0.6512E+02
   2.970  0.5093E+01  0.6517E+02
   2.980  0.1584E+02  0.6530E+02
   2.990  0.1078E+02  0.6543E+02
   3.000  0.3613E+01  0.6554E+02
   3.010  0.3161E+01  0.6557E+02
   3.020  0.3003E+01  0.6560E+02
   3.030  0.2869E+01  0.6563E+02
   3.040  0.2734E+01  0.6566E+02
   3.050  0.2613E+01  0.6568E+02
   3.060  0.2502E+01  0.6571E+02
   3.070  0.2390E+01  0.6573E+02
   3.080  0.2279E+01  0.6576E+02
   3.090  0.2168E+01  0.6578E+02
   3.100  0.2076E+01  0.6580E+02
   3.110  0.1992E+01  0.6582E+02
   3.120  0.1911E+01  0.6584E+02
   3.130  0.1838E+01  0.6586E+02
   3.140  0.1764E+01  0.6588E+02
   3.150  0.1690E+01  0.6589E+02
   3.160  0.1616E+01  0.6591E+02
   3.170  0.1615E+01  0.6593E+02
   3.180  0.1621E+01  0.6594E+02
   3.190  0.1626E+01  0.6596E+02
   3.200  0.1632E+01  0.6598E+02
   3.210  0.1638E+01  0.6599E+02
   3.220  0.1644E+01  0.6601E+02
   3.230  0.1650E+01  0.6603E+02
   3.240  0.1669E+01  0.6604E+02
   3.250  0.1692E+01  0.6606E+02
   3.260  0.1711E+01  0.6608E+02
   3.270  0.1727E+01  0.6609E+02
   3.280  0.1743E+01  0.6611E+02
   3.290  0.1760E+01  0.6613E+02
   3.300  0.1776E+01  0.6615E+02
   3.310  0.1792E+01  0.6616E+02
   3.320  0.1808E+01  0.6618E+02
   3.330  0.1824E+01  0.6620E+02
   3.340  0.1840E+01  0.6622E+02
   3.350  0.1856E+01  0.6624E+02
   3.360  0.1872E+01  0.6625E+02
   3.370  0.1888E+01  0.6627E+02
   3.380  0.1903E+01  0.6629E+02
   3.390  0.1918E+01  0.6631E+02
   3.400  0.2027E+01  0.6633E+02
   3.410  0.2199E+01  0.6635E+02
   3.420  0.2371E+01  0.6638E+02
   3.430  0.2543E+01  0.6640E+02
   3.440  0.2528E+01  0.6643E+02
   3.450  0.2670E+01  0.6645E+02
   3.460  0.2854E+01  0.6648E+02
   3.470  0.3038E+01  0.6651E+02
   3.480  0.3222E+01  0.6654E+02
   3.490  0.3406E+01  0.6657E+02
   3.500  0.3302E+01  0.6660E+02
   3.510  0.3551E+01  0.6664E+02
   3.520  0.3800E+01  0.6668E+02
   3.530  0.4088E+01  0.6672E+02
   3.540  0.4439E+01  0.6676E+02
   3.550  0.4803E+01  0.6680E+02
   3.560  0.4886E+01  0.6685E+02
   3.570  0.5217E+01  0.6690E+02
   3.580  0.6484E+01  0.6697E+02
   3.590  0.6618E+01  0.6703E+02
   3.600  0.6751E+01  0.6710E+02
   3.610  0.6853E+01  0.6717E+02
   3.620  0.5399E+01  0.6723E+02
   3.630  0.4685E+01  0.6728E+02
   3.640  0.4533E+01  0.6732E+02
   3.650  0.4381E+01  0.6737E+02
   3.660  0.4229E+01  0.6741E+02
   3.670  0.4077E+01  0.6745E+02
   3.680  0.3925E+01  0.6749E+02
   3.690  0.3773E+01  0.6753E+02
   3.700  0.3621E+01  0.6757E+02
   3.710  0.3734E+01  0.6761E+02
   3.720  0.3524E+01  0.6764E+02
   3.730  0.4705E+01  0.6768E+02
   3.740  0.4333E+01  0.6773E+02
   3.750  0.3961E+01  0.6777E+02
   3.760  0.3675E+01  0.6781E+02
   3.770  0.3532E+01  0.6784E+02
   3.780  0.3372E+01  0.6788E+02
   3.790  0.3188E+01  0.6791E+02
   3.800  0.3005E+01  0.6794E+02
   3.810  0.2821E+01  0.6797E+02
   3.820  0.2663E+01  0.6800E+02
   3.830  0.2657E+01  0.6803E+02
   3.840  0.2652E+01  0.6805E+02
   3.850  0.2646E+01  0.6808E+02
   3.860  0.2640E+01  0.6810E+02
   3.870  0.2635E+01  0.6813E+02
   3.880  0.2629E+01  0.6816E+02
   3.890  0.2623E+01  0.6818E+02
   3.900  0.2618E+01  0.6821E+02
   3.910  0.2612E+01  0.6824E+02
   3.920  0.2598E+01  0.6826E+02
   3.930  0.2571E+01  0.6829E+02
   3.940  0.2544E+01  0.6831E+02
   3.950  0.2518E+01  0.6834E+02
   3.960  0.2657E+01  0.6836E+02
   3.970  0.4193E+01  0.6840E+02
   3.980  0.5745E+01  0.6845E+02
   3.990  0.6286E+01  0.6851E+02
   4.000  0.4304E+01  0.6856E+02
   4.010  0.4081E+01  0.6860E+02
   4.020  0.3857E+01  0.6864E+02
   4.030  0.3633E+01  0.6868E+02
   4.040  0.5992E+00  0.6871E+02
   4.050  0.5961E+00  0.6871E+02
   4.060  0.5930E+00  0.6872E+02
   4.070  0.5899E+00  0.6872E+02
   4.080  0.5869E+00  0.6873E+02
   4.090  0.5838E+00  0.6874E+02
   4.100  0.5807E+00  0.6874E+02
   4.110  0.5776E+00  0.6875E+02
   4.120  0.5746E+00  0.6875E+02
   4.130  0.5719E+00  0.6876E+02
   4.140  0.5719E+00  0.6877E+02
   4.150  0.5718E+00  0.6877E+02
   4.160  0.5718E+00  0.6878E+02
   4.170  0.5718E+00  0.6878E+02
   4.180  0.5718E+00  0.6879E+02
   4.190  0.5718E+00  0.6879E+02
   4.200  0.5717E+00  0.6880E+02
   4.210  0.5717E+00  0.6881E+02
   4.220  0.5717E+00  0.6881E+02
   4.230  0.5717E+00  0.6882E+02
   4.240  0.5717E+00  0.6882E+02
   4.250  0.5716E+00  0.6883E+02
   4.260  0.5716E+00  0.6883E+02
   4.270  0.5716E+00  0.6884E+02
   4.280  0.5716E+00  0.6885E+02
   4.290  0.5716E+00  0.6885E+02
   4.300  0.5715E+00  0.6886E+02
   4.310  0.5715E+00  0.6886E+02
   4.320  0.5715E+00  0.6887E+02
   4.330  0.5715E+00  0.6887E+02
   4.340  0.5715E+00  0.6888E+02
   4.350  0.5714E+00  0.6889E+02
   4.360  0.5714E+00  0.6889E+02
   4.370  0.5714E+00  0.6890E+02
   4.380  0.5714E+00  0.6890E+02
   4.390  0.5714E+00  0.6891E+02
   4.400  0.5713E+00  0.6891E+02
   4.410  0.5713E+00  0.6892E+02
   4.420  0.5713E+00  0.6893E+02
   4.430  0.5713E+00  0.6893E+02
   4.440  0.5713E+00  0.6894E+02
   4.450  0.5712E+00  0.6894E+02
   4.460  0.5712E+00  0.6895E+02
   4.470  0.5712E+00  0.6895E+02
   4.480  0.5366E+00  0.6896E+02
   4.490  0.5374E+00  0.6896E+02
   4.500  0.5382E+00  0.6897E+02
   4.510  0.5389E+00  0.6898E+02
   4.520  0.5397E+00  0.6898E+02
   4.530  0.5405E+00  0.6899E+02
   4.540  0.5413E+00  0.6899E+02
   4.550  0.5421E+00  0.6900E+02
   4.560  0.5429E+00  0.6900E+02
   4.570  0.5437E+00  0.6901E+02
   4.580  0.5445E+00  0.6901E+02
   4.590  0.5452E+00  0.6902E+02
   4.600  0.5460E+00  0.6902E+02
   4.610  0.5468E+00  0.6903E+02
   4.620  0.5476E+00  0.6904E+02
   4.630  0.5484E+00  0.6904E+02
   4.640  0.5492E+00  0.6905E+02
   4.650  0.5534E+00  0.6905E+02
   4.660  0.5675E+00  0.6906E+02
   4.670  0.5817E+00  0.6906E+02
   4.680  0.5958E+00  0.6907E+02
   4.690  0.6099E+00  0.6907E+02
   4.700  0.6241E+00  0.6908E+02
   4.710  0.6382E+00  0.6909E+02
   4.720  0.6523E+00  0.6909E+02
   4.730  0.6665E+00  0.6910E+02
   4.740  0.6806E+00  0.6911E+02
   4.750  0.6948E+00  0.6911E+02
   4.760  0.7089E+00  0.6912E+02
   4.770  0.9348E+00  0.6913E+02
   4.780  0.9148E+00  0.6914E+02
   4.790  0.8949E+00  0.6915E+02
   4.800  0.8750E+00  0.6916E+02
   4.810  0.8551E+00  0.6916E+02
   4.820  0.8352E+00  0.6917E+02
   4.830  0.8153E+00  0.6918E+02
   4.840  0.7954E+00  0.6919E+02
   4.850  0.7755E+00  0.6920E+02
   4.860  0.7556E+00  0.6921E+02
   4.870  0.7356E+00  0.6921E+02
   4.880  0.7157E+00  0.6922E+02
   4.890  0.6958E+00  0.6923E+02
   4.900  0.6759E+00  0.6923E+02
   4.910  0.6560E+00  0.6924E+02
   4.920  0.6361E+00  0.6925E+02
   4.930  0.6162E+00  0.6925E+02
   4.940  0.5963E+00  0.6926E+02
   4.950  0.5764E+00  0.6927E+02
   4.960  0.5565E+00  0.6927E+02
   4.970  0.5365E+00  0.6928E+02
   4.980  0.5166E+00  0.6928E+02
   4.990  0.4967E+00  0.6929E+02
   5.000  0.4776E+00  0.6929E+02
   5.010  0.4768E+00  0.6930E+02
   5.020  0.4760E+00  0.6930E+02
   5.030  0.4752E+00  0.6931E+02
   5.040  0.4744E+00  0.6931E+02
   5.050  0.4736E+00  0.6932E+02
   5.060  0.4728E+00  0.6932E+02
   5.070  0.4720E+00  0.6932E+02
   5.080  0.4709E+00  0.6933E+02
   5.090  0.4695E+00  0.6933E+02
   5.100  0.4681E+00  0.6934E+02
   5.110  0.4667E+00  0.6934E+02
   5.120  0.4653E+00  0.6935E+02
   5.130  0.4639E+00  0.6935E+02
   5.140  0.4625E+00  0.6936E+02
   5.150  0.4611E+00  0.6936E+02
   5.160  0.4597E+00  0.6937E+02
   5.170  0.4583E+00  0.6937E+02
   5.180  0.4570E+00  0.6938E+02
   5.190  0.4556E+00  0.6938E+02
   5.200  0.4542E+00  0.6938E+02
   5.210  0.4528E+00  0.6939E+02
   5.220  0.4514E+00  0.6939E+02
   5.230  0.4500E+00  0.6940E+02
   5.240  0.4486E+00  0.6940E+02
   5.250  0.4472E+00  0.6941E+02
   5.260  0.4464E+00  0.6941E+02
   5.270  0.4464E+00  0.6942E+02
   5.280  0.4465E+00  0.6942E+02
   5.290  0.4465E+00  0.6943E+02
   5.300  0.4465E+00  0.6943E+02
   5.310  0.4466E+00  0.6943E+02
   5.320  0.4466E+00  0.6944E+02
   5.330  0.4466E+00  0.6944E+02
   5.340  0.4467E+00  0.6945E+02
   5.350  0.4467E+00  0.6945E+02
   5.360  0.4467E+00  0.6946E+02
   5.370  0.4468E+00  0.6946E+02
   5.380  0.4468E+00  0.6947E+02
   5.390  0.4468E+00  0.6947E+02
   5.400  0.4469E+00  0.6947E+02
   5.410  0.4469E+00  0.6948E+02
   5.420  0.4469E+00  0.6948E+02
   5.430  0.4469E+00  0.6949E+02
   5.440  0.4470E+00  0.6949E+02
   5.450  0.4470E+00  0.6950E+02
   5.460  0.4470E+00  0.6950E+02
   5.470  0.4471E+00  0.6951E+02
   5.480  0.4471E+00  0.6951E+02
   5.490  0.4471E+00  0.6951E+02
   5.500  0.4472E+00  0.6952E+02
   5.510  0.4472E+00  0.6952E+02
   5.520  0.4472E+00  0.6953E+02
   5.530  0.4473E+00  0.6953E+02
   5.540  0.4473E+00  0.6954E+02
   5.550  0.4473E+00  0.6954E+02
   5.560  0.4474E+00  0.6955E+02
   5.570  0.4474E+00  0.6955E+02
   5.580  0.4474E+00  0.6955E+02
   5.590  0.4475E+00  0.6956E+02
   5.600  0.4475E+00  0.6956E+02
   5.610  0.5897E+00  0.6957E+02
   5.620  0.5898E+00  0.6957E+02
   5.630  0.5900E+00  0.6958E+02
   5.640  0.5902E+00  0.6959E+02
   5.650  0.5903E+00  0.6959E+02
   5.660  0.5905E+00  0.6960E+02
   5.670  0.5906E+00  0.6960E+02
   5.680  0.5908E+00  0.6961E+02
   5.690  0.5910E+00  0.6962E+02
   5.700  0.5911E+00  0.6962E+02
   5.710  0.6628E+00  0.6963E+02
   5.720  0.6665E+00  0.6963E+02
   5.730  0.6701E+00  0.6964E+02
   5.740  0.6738E+00  0.6965E+02
   5.750  0.6775E+00  0.6965E+02
   5.760  0.6811E+00  0.6966E+02
   5.770  0.6848E+00  0.6967E+02
   5.780  0.6885E+00  0.6968E+02
   5.790  0.6922E+00  0.6968E+02
   5.800  0.6958E+00  0.6969E+02
   5.810  0.6995E+00  0.6970E+02
   5.820  0.7032E+00  0.6970E+02
   5.830  0.7068E+00  0.6971E+02
   5.840  0.7105E+00  0.6972E+02
   5.850  0.7332E+00  0.6972E+02
   5.860  0.7564E+00  0.6973E+02
   5.870  0.7796E+00  0.6974E+02
   5.880  0.8028E+00  0.6975E+02
   5.890  0.8261E+00  0.6976E+02
   5.900  0.8493E+00  0.6976E+02
   5.910  0.8725E+00  0.6977E+02
   5.920  0.8958E+00  0.6978E+02
   5.930  0.9190E+00  0.6979E+02
   5.940  0.9422E+00  0.6980E+02
   5.950  0.9655E+00  0.6981E+02
   5.960  0.1054E+01  0.6982E+02
   5.970  0.1154E+01  0.6983E+02
   5.980  0.1254E+01  0.6984E+02
   5.990  0.1330E+01  0.6986E+02
   6.000  0.1274E+01  0.6987E+02
   6.010  0.1217E+01  0.6988E+02
   6.020  0.1160E+01  0.6989E+02
   6.030  0.1103E+01  0.6990E+02
   6.040  0.1047E+01  0.6991E+02
   6.050  0.9899E+00  0.6993E+02
   6.060  0.9332E+00  0.6993E+02
   6.070  0.8764E+00  0.6994E+02
   6.080  0.2313E+00  0.6995E+02
   6.090  0.2261E+00  0.6995E+02
   6.100  0.2209E+00  0.6995E+02
   6.110  0.2158E+00  0.6995E+02
   6.120  0.2106E+00  0.6996E+02
   6.130  0.2054E+00  0.6996E+02
   6.140  0.2003E+00  0.6996E+02
   6.150  0.1951E+00  0.6996E+02
   6.160  0.1900E+00  0.6997E+02
   6.170  0.1848E+00  0.6997E+02
   6.180  0.1796E+00  0.6997E+02
   6.190  0.1745E+00  0.6997E+02
   6.200  0.1693E+00  0.6997E+02
   6.210  0.1641E+00  0.6997E+02
   6.220  0.1590E+00  0.6998E+02
   6.230  0.1538E+00  0.6998E+02
   6.240  0.1486E+00  0.6998E+02
   6.250  0.1435E+00  0.6998E+02
   6.260  0.1383E+00  0.6998E+02
   6.270  0.1331E+00  0.6998E+02
   6.280  0.1280E+00  0.6998E+02
   6.290  0.1228E+00  0.6999E+02
   6.300  0.1176E+00  0.6999E+02
   6.310  0.1125E+00  0.6999E+02
   6.320  0.1073E+00  0.6999E+02
   6.330  0.1022E+00  0.6999E+02
   6.340  0.9699E-01  0.6999E+02
   6.350  0.9183E-01  0.6999E+02
   6.360  0.8666E-01  0.6999E+02
   6.370  0.8150E-01  0.6999E+02
   6.380  0.7633E-01  0.6999E+02
   6.390  0.7117E-01  0.7000E+02
   6.400  0.6600E-01  0.7000E+02
   6.410  0.6084E-01  0.7000E+02
   6.420  0.5568E-01  0.7000E+02
   6.430  0.5051E-01  0.7000E+02
   6.440  0.4535E-01  0.7000E+02
   6.450  0.4018E-01  0.7000E+02
   6.460  0.3502E-01  0.7000E+02
   6.470  0.2985E-01  0.7000E+02
   6.480  0.2469E-01  0.7000E+02
   6.490  0.1952E-01  0.7000E+02
   6.500  0.1436E-01  0.7000E+02
   6.510  0.9195E-02  0.7000E+02
   6.520  0.4031E-02  0.7000E+02
   6.530  0.0000E+00  0.7000E+02
   6.540  0.0000E+00  0.7000E+02
   6.550  0.0000E+00  0.7000E+02
   6.560  0.0000E+00  0.7000E+02
   6.570  0.0000E+00  0.7000E+02
   6.580  0.0000E+00  0.7000E+02
   6.590  0.0000E+00  0.7000E+02
   6.600  0.0000E+00  0.7000E+02
   6.610  0.0000E+00  0.7000E+02
   6.620  0.0000E+00  0.7000E+02
   6.630  0.0000E+00  0.7000E+02
   6.640  0.0000E+00  0.7000E+02
   6.650  0.0000E+00  0.7000E+02
   6.660  0.0000E+00  0.7000E+02
   6.670  0.0000E+00  0.7000E+02
   6.680  0.0000E+00  0.7000E+02
   6.690  0.0000E+00  0.7000E+02
   6.700  0.0000E+00  0.7000E+02
   6.710  0.0000E+00  0.7000E+02
   6.720  0.0000E+00  0.7000E+02
   6.730  0.0000E+00  0.7000E+02
   6.740  0.0000E+00  0.7000E+02
   6.750  0.0000E+00  0.7000E+02
   6.760  0.0000E+00  0.7000E+02
   6.770  0.0000E+00  0.7000E+02
   6.780  0.0000E+00  0.7000E+02
   6.790  0.0000E+00  0.7000E+02
   6.800  0.0000E+00  0.7000E+02
   6.810  0.0000E+00  0.7000E+02
   6.820  0.0000E+00  0.7000E+02
   6.830  0.0000E+00  0.7000E+02
   6.840  0.0000E+00  0.7000E+02
   6.850  0.0000E+00  0.7000E+02
   6.860  0.0000E+00  0.7000E+02
   6.870  0.0000E+00  0.7000E+02
   6.880  0.0000E+00  0.7000E+02
   6.890  0.0000E+00  0.7000E+02
   6.900  0.0000E+00  0.7000E+02
   6.910  0.0000E+00  0.7000E+02
   6.920  0.0000E+00  0.7000E+02
   6.930  0.0000E+00  0.7000E+02
   6.940  0.0000E+00  0.7000E+02
   6.950  0.0000E+00  0.7000E+02
   6.960  0.0000E+00  0.7000E+02
   6.970  0.0000E+00  0.7000E+02
   6.980  0.0000E+00  0.7000E+02
   6.990  0.0000E+00  0.7000E+02
   7.000  0.0000E+00  0.7000E+02
   7.010  0.0000E+00  0.7000E+02
   7.020  0.0000E+00  0.7000E+02
   7.030  0.0000E+00  0.7000E+02
   7.040  0.0000E+00  0.7000E+02
   7.050  0.0000E+00  0.7000E+02
   7.060  0.0000E+00  0.7000E+02
   7.070  0.0000E+00  0.7000E+02
   7.080  0.0000E+00  0.7000E+02
   7.090  0.0000E+00  0.7000E+02
   7.100  0.0000E+00  0.7000E+02
   7.110  0.0000E+00  0.7000E+02
   7.120  0.0000E+00  0.7000E+02
   7.130  0.0000E+00  0.7000E+02
   7.140  0.0000E+00  0.7000E+02
   7.150  0.0000E+00  0.7000E+02
   7.160  0.0000E+00  0.7000E+02
   7.170  0.0000E+00  0.7000E+02
   7.180  0.0000E+00  0.7000E+02
   7.190  0.0000E+00  0.7000E+02
   7.200  0.0000E+00  0.7000E+02
   7.210  0.0000E+00  0.7000E+02
   7.220  0.0000E+00  0.7000E+02
   7.230  0.0000E+00  0.7000E+02
   7.240  0.0000E+00  0.7000E+02
   7.250  0.0000E+00  0.7000E+02
   7.260  0.0000E+00  0.7000E+02
   7.270  0.0000E+00  0.7000E+02
   7.280  0.0000E+00  0.7000E+02
   7.290  0.0000E+00  0.7000E+02
   7.300  0.0000E+00  0.7000E+02
   7.310  0.0000E+00  0.7000E+02
   7.320  0.0000E+00  0.7000E+02
   7.330  0.0000E+00  0.7000E+02
   7.340  0.0000E+00  0.7000E+02
   7.350  0.0000E+00  0.7000E+02
   7.360  0.0000E+00  0.7000E+02
   7.370  0.0000E+00  0.7000E+02
   7.380  0.0000E+00  0.7000E+02
   7.390  0.0000E+00  0.7000E+02
   7.400  0.0000E+00  0.7000E+02
   7.410  0.0000E+00  0.7000E+02
   7.420  0.0000E+00  0.7000E+02
   7.430  0.0000E+00  0.7000E+02
   7.440  0.0000E+00  0.7000E+02
   7.450  0.0000E+00  0.7000E+02
   7.460  0.0000E+00  0.7000E+02
   7.470  0.0000E+00  0.7000E+02
   7.480  0.0000E+00  0.7000E+02
   7.490  0.0000E+00  0.7000E+02
   7.500  0.0000E+00  0.7000E+02
   7.510  0.0000E+00  0.7000E+02
   7.520  0.0000E+00  0.7000E+02
   7.530  0.0000E+00  0.7000E+02
   7.540  0.0000E+00  0.7000E+02
   7.550  0.0000E+00  0.7000E+02
   7.560  0.0000E+00  0.7000E+02
   7.570  0.0000E+00  0.7000E+02
   7.580  0.0000E+00  0.7000E+02
   7.590  0.0000E+00  0.7000E+02
   7.600  0.0000E+00  0.7000E+02
   7.610  0.0000E+00  0.7000E+02
   7.620  0.0000E+00  0.7000E+02
   7.630  0.0000E+00  0.7000E+02
   7.640  0.0000E+00  0.7000E+02
   7.650  0.0000E+00  0.7000E+02
   7.660  0.0000E+00  0.7000E+02
   7.670  0.0000E+00  0.7000E+02
   7.680  0.0000E+00  0.7000E+02
   7.690  0.0000E+00  0.7000E+02
   7.700  0.0000E+00  0.7000E+02
   7.710  0.0000E+00  0.7000E+02
   7.720  0.0000E+00  0.7000E+02
   7.730  0.0000E+00  0.7000E+02
   7.740  0.0000E+00  0.7000E+02
   7.750  0.0000E+00  0.7000E+02
   7.760  0.0000E+00  0.7000E+02
   7.770  0.0000E+00  0.7000E+02
   7.780  0.0000E+00  0.7000E+02
   7.790  0.0000E+00  0.7000E+02
   7.800  0.0000E+00  0.7000E+02
   7.810  0.0000E+00  0.7000E+02
   7.820  0.0000E+00  0.7000E+02
   7.830  0.0000E+00  0.7000E+02
   7.840  0.0000E+00  0.7000E+02
   7.850  0.0000E+00  0.7000E+02
   7.860  0.0000E+00  0.7000E+02
   7.870  0.0000E+00  0.7000E+02
   7.880  0.0000E+00  0.7000E+02
   7.890  0.0000E+00  0.7000E+02
   7.900  0.0000E+00  0.7000E+02
   7.910  0.0000E+00  0.7000E+02
   7.920  0.0000E+00  0.7000E+02
   7.930  0.0000E+00  0.7000E+02
   7.940  0.0000E+00  0.7000E+02
   7.950  0.0000E+00  0.7000E+02
   7.960  0.0000E+00  0.7000E+02
   7.970  0.0000E+00  0.7000E+02
   7.980  0.0000E+00  0.7000E+02
   7.990  0.0000E+00  0.7000E+02
   8.000  0.0000E+00  0.7000E+02
   8.010  0.0000E+00  0.7000E+02
   8.020  0.0000E+00  0.7000E+02
   8.030  0.0000E+00  0.7000E+02
   8.040  0.0000E+00  0.7000E+02
   8.050  0.0000E+00  0.7000E+02
   8.060  0.0000E+00  0.7000E+02
   8.070  0.0000E+00  0.7000E+02
   8.080  0.0000E+00  0.7000E+02
   8.090  0.0000E+00  0.7000E+02
   8.100  0.0000E+00  0.7000E+02
   8.110  0.0000E+00  0.7000E+02
   8.120  0.0000E+00  0.7000E+02
   8.130  0.0000E+00  0.7000E+02
   8.140  0.0000E+00  0.7000E+02
   8.150  0.0000E+00  0.7000E+02
   8.160  0.0000E+00  0.7000E+02
   8.170  0.0000E+00  0.7000E+02
   8.180  0.0000E+00  0.7000E+02
   8.190  0.0000E+00  0.7000E+02
   8.200  0.0000E+00  0.7000E+02
   8.210  0.0000E+00  0.7000E+02
   8.220  0.0000E+00  0.7000E+02
   8.230  0.0000E+00  0.7000E+02
   8.240  0.0000E+00  0.7000E+02
   8.250  0.0000E+00  0.7000E+02
   8.260  0.0000E+00  0.7000E+02
   8.270  0.0000E+00  0.7000E+02
   8.280  0.0000E+00  0.7000E+02
   8.290  0.0000E+00  0.7000E+02
   8.300  0.0000E+00  0.7000E+02
   8.310  0.0000E+00  0.7000E+02
   8.320  0.0000E+00  0.7000E+02
   8.330  0.0000E+00  0.7000E+02
   8.340  0.0000E+00  0.7000E+02
   8.350  0.0000E+00  0.7000E+02
   8.360  0.0000E+00  0.7000E+02
   8.370  0.0000E+00  0.7000E+02
   8.380  0.0000E+00  0.7000E+02
   8.390  0.0000E+00  0.7000E+02
   8.400  0.0000E+00  0.7000E+02
   8.410  0.0000E+00  0.7000E+02
   8.420  0.0000E+00  0.7000E+02
   8.430  0.0000E+00  0.7000E+02
   8.440  0.0000E+00  0.7000E+02
   8.450  0.0000E+00  0.7000E+02
   8.460  0.0000E+00  0.7000E+02
   8.470  0.0000E+00  0.7000E+02
   8.480  0.0000E+00  0.7000E+02
   8.490  0.0000E+00  0.7000E+02
   8.500  0.0000E+00  0.7000E+02
   8.510  0.0000E+00  0.7000E+02
   8.520  0.0000E+00  0.7000E+02
   8.530  0.0000E+00  0.7000E+02
   8.540  0.0000E+00  0.7000E+02
   8.550  0.0000E+00  0.7000E+02
   8.560  0.0000E+00  0.7000E+02
   8.570  0.0000E+00  0.7000E+02
   8.580  0.0000E+00  0.7000E+02
   8.590  0.0000E+00  0.7000E+02
   8.600  0.0000E+00  0.7000E+02
   8.610  0.0000E+00  0.7000E+02
   8.620  0.0000E+00  0.7000E+02
   8.630  0.0000E+00  0.7000E+02
   8.640  0.0000E+00  0.7000E+02
   8.650  0.0000E+00  0.7000E+02
   8.660  0.0000E+00  0.7000E+02
   8.670  0.0000E+00  0.7000E+02
   8.680  0.0000E+00  0.7000E+02
   8.690  0.0000E+00  0.7000E+02
   8.700  0.0000E+00  0.7000E+02
   8.710  0.0000E+00  0.7000E+02
   8.720  0.0000E+00  0.7000E+02
   8.730  0.0000E+00  0.7000E+02
   8.740  0.0000E+00  0.7000E+02
   8.750  0.0000E+00  0.7000E+02
   8.760  0.0000E+00  0.7000E+02
   8.770  0.0000E+00  0.7000E+02
   8.780  0.0000E+00  0.7000E+02
   8.790  0.0000E+00  0.7000E+02
   8.800  0.0000E+00  0.7000E+02
   8.810  0.0000E+00  0.7000E+02
   8.820  0.0000E+00  0.7000E+02
   8.830  0.0000E+00  0.7000E+02
   8.840  0.0000E+00  0.7000E+02
   8.850  0.0000E+00  0.7000E+02
   8.860  0.0000E+00  0.7000E+02
   8.870  0.0000E+00  0.7000E+02
   8.880  0.0000E+00  0.7000E+02
   8.890  0.0000E+00  0.7000E+02
   8.900  0.0000E+00  0.7000E+02
   8.910  0.0000E+00  0.7000E+02
   8.920  0.0000E+00  0.7000E+02
   8.930  0.0000E+00  0.7000E+02
   8.940  0.0000E+00  0.7000E+02
   8.950  0.0000E+00  0.7000E+02
   8.960  0.0000E+00  0.7000E+02
   8.970  0.0000E+00  0.7000E+02
   8.980  0.0000E+00  0.7000E+02
   8.990  0.0000E+00  0.7000E+02
   9.000  0.0000E+00  0.7000E+02
   9.010  0.0000E+00  0.7000E+02
   9.020  0.0000E+00  0.7000E+02
   9.030  0.0000E+00  0.7000E+02
   9.040  0.0000E+00  0.7000E+02
   9.050  0.0000E+00  0.7000E+02
   9.060  0.0000E+00  0.7000E+02
   9.070  0.0000E+00  0.7000E+02
   9.080  0.0000E+00  0.7000E+02
   9.090  0.0000E+00  0.7000E+02
   9.100  0.0000E+00  0.7000E+02
   9.110  0.0000E+00  0.7000E+02
   9.120  0.0000E+00  0.7000E+02
   9.130  0.0000E+00  0.7000E+02
   9.140  0.0000E+00  0.7000E+02
   9.150  0.0000E+00  0.7000E+02
   9.160  0.0000E+00  0.7000E+02
   9.170  0.0000E+00  0.7000E+02
   9.180  0.0000E+00  0.7000E+02
   9.190  0.0000E+00  0.7000E+02
   9.200  0.0000E+00  0.7000E+02
   9.210  0.0000E+00  0.7000E+02
   9.220  0.0000E+00  0.7000E+02
   9.230  0.0000E+00  0.7000E+02
   9.240  0.0000E+00  0.7000E+02
   9.250  0.0000E+00  0.7000E+02
   9.260  0.0000E+00  0.7000E+02
   9.270  0.0000E+00  0.7000E+02
   9.280  0.0000E+00  0.7000E+02
   9.290  0.0000E+00  0.7000E+02
   9.300  0.0000E+00  0.7000E+02
   9.310  0.0000E+00  0.7000E+02
   9.320  0.0000E+00  0.7000E+02
   9.330  0.0000E+00  0.7000E+02
   9.340  0.0000E+00  0.7000E+02
   9.350  0.0000E+00  0.7000E+02
   9.360  0.0000E+00  0.7000E+02
   9.370  0.0000E+00  0.7000E+02
   9.380  0.0000E+00  0.7000E+02
   9.390  0.0000E+00  0.7000E+02
   9.400  0.0000E+00  0.7000E+02
   9.410  0.0000E+00  0.7000E+02
   9.420  0.0000E+00  0.7000E+02
   9.430  0.0000E+00  0.7000E+02
   9.440  0.0000E+00  0.7000E+02
   9.450  0.0000E+00  0.7000E+02
   9.460  0.0000E+00  0.7000E+02
   9.470  0.0000E+00  0.7000E+02
   9.480  0.0000E+00  0.7000E+02
   9.490  0.0000E+00  0.7000E+02
   9.500  0.0000E+00  0.7000E+02
   9.510  0.0000E+00  0.7000E+02
   9.520  0.0000E+00  0.7000E+02
   9.530  0.0000E+00  0.7000E+02
   9.540  0.0000E+00  0.7000E+02
   9.550  0.0000E+00  0.7000E+02
   9.560  0.0000E+00  0.7000E+02
   9.570  0.0000E+00  0.7000E+02
   9.580  0.0000E+00  0.7000E+02
   9.590  0.0000E+00  0.7000E+02
   9.600  0.0000E+00  0.7000E+02
   9.610  0.0000E+00  0.7000E+02
   9.620  0.0000E+00  0.7000E+02
   9.630  0.0000E+00  0.7000E+02
   9.640  0.0000E+00  0.7000E+02
   9.650  0.0000E+00  0.7000E+02
   9.660  0.0000E+00  0.7000E+02
   9.670  0.0000E+00  0.7000E+02
   9.680  0.0000E+00  0.7000E+02
   9.690  0.0000E+00  0.7000E+02
   9.700  0.0000E+00  0.7000E+02
   9.710  0.0000E+00  0.7000E+02
   9.720  0.0000E+00  0.7000E+02
   9.730  0.0000E+00  0.7000E+02
   9.740  0.0000E+00  0.7000E+02
   9.750  0.0000E+00  0.7000E+02
   9.760  0.0000E+00  0.7000E+02
   9.770  0.0000E+00  0.7000E+02
   9.780  0.0000E+00  0.7000E+02
   9.790  0.0000E+00  0.7000E+02
   9.800  0.0000E+00  0.7000E+02
   9.810  0.0000E+00  0.7000E+02
   9.820  0.0000E+00  0.7000E+02
   9.830  0.0000E+00  0.7000E+02
   9.840  0.0000E+00  0.7000E+02
   9.850  0.0000E+00  0.7000E+02
   9.860  0.0000E+00  0.7000E+02
   9.870  0.0000E+00  0.7000E+02
   9.880  0.0000E+00  0.7000E+02
   9.890  0.0000E+00  0.7000E+02
   9.900  0.0000E+00  0.7000E+02
   9.910  0.0000E+00  0.7000E+02
   9.920  0.0000E+00  0.7000E+02
   9.930  0.0000E+00  0.7000E+02
   9.940  0.0000E+00  0.7000E+02
   9.950  0.0000E+00  0.7000E+02
   9.960  0.0000E+00  0.7000E+02
   9.970  0.0000E+00  0.7000E+02
   9.980  0.0000E+00  0.7000E+02
   9.990  0.0000E+00  0.7000E+02
  10.000  0.0000E+00  0.7000E+02
  10.010  0.0000E+00  0.7000E+02
  10.020  0.0000E+00  0.7000E+02
  10.030  0.0000E+00  0.7000E+02
  10.040  0.0000E+00  0.7000E+02
  10.050  0.0000E+00  0.7000E+02
  10.060  0.0000E+00  0.7000E+02
  10.070  0.0000E+00  0.7000E+02
  10.080  0.0000E+00  0.7000E+02
  10.090  0.0000E+00  0.7000E+02
  10.100  0.0000E+00  0.7000E+02
  10.110  0.0000E+00  0.7000E+02
  10.120  0.0000E+00  0.7000E+02
  10.130  0.0000E+00  0.7000E+02
  10.140  0.0000E+00  0.7000E+02
  10.150  0.0000E+00  0.7000E+02
  10.160  0.0000E+00  0.7000E+02
  10.170  0.0000E+00  0.7000E+02
  10.180  0.0000E+00  0.7000E+02
  10.190  0.0000E+00  0.7000E+02
  10.200  0.0000E+00  0.7000E+02
  10.210  0.0000E+00  0.7000E+02
  10.220  0.0000E+00  0.7000E+02
  10.230  0.0000E+00  0.7000E+02
  10.240  0.0000E+00  0.7000E+02
  10.250  0.0000E+00  0.7000E+02
  10.260  0.0000E+00  0.7000E+02
  10.270  0.0000E+00  0.7000E+02
  10.280  0.0000E+00  0.7000E+02
  10.290  0.0000E+00  0.7000E+02
  10.300  0.0000E+00  0.7000E+02
  10.310  0.0000E+00  0.7000E+02
  10.320  0.0000E+00  0.7000E+02
  10.330  0.0000E+00  0.7000E+02
  10.340  0.0000E+00  0.7000E+02
  10.350  0.0000E+00  0.7000E+02
  10.360  0.0000E+00  0.7000E+02
  10.370  0.0000E+00  0.7000E+02
  10.380  0.0000E+00  0.7000E+02
  10.390  0.0000E+00  0.7000E+02
  10.400  0.0000E+00  0.7000E+02
  10.410  0.0000E+00  0.7000E+02
  10.420  0.0000E+00  0.7000E+02
  10.430  0.0000E+00  0.7000E+02
  10.440  0.0000E+00  0.7000E+02
  10.450  0.0000E+00  0.7000E+02
  10.460  0.0000E+00  0.7000E+02
  10.470  0.0000E+00  0.7000E+02
  10.480  0.0000E+00  0.7000E+02
  10.490  0.0000E+00  0.7000E+02
  10.500  0.0000E+00  0.7000E+02
  10.510  0.0000E+00  0.7000E+02
  10.520  0.0000E+00  0.7000E+02
  10.530  0.0000E+00  0.7000E+02
  10.540  0.0000E+00  0.7000E+02
  10.550  0.0000E+00  0.7000E+02
  10.560  0.0000E+00  0.7000E+02
  10.570  0.0000E+00  0.7000E+02
  10.580  0.0000E+00  0.7000E+02
  10.590  0.0000E+00  0.7000E+02
  10.600  0.0000E+00  0.7000E+02
  10.610  0.0000E+00  0.7000E+02
  10.620  0.0000E+00  0.7000E+02
  10.630  0.0000E+00  0.7000E+02
  10.640  0.0000E+00  0.7000E+02
  10.650  0.0000E+00  0.7000E+02
  10.660  0.0000E+00  0.7000E+02
  10.670  0.0000E+00  0.7000E+02
  10.680  0.0000E+00  0.7000E+02
  10.690  0.0000E+00  0.7000E+02
  10.700  0.0000E+00  0.7000E+02
  10.710  0.0000E+00  0.7000E+02
  10.720  0.0000E+00  0.7000E+02
  10.730  0.0000E+00  0.7000E+02
  10.740  0.0000E+00  0.7000E+02
  10.750  0.0000E+00  0.7000E+02
  10.760  0.0000E+00  0.7000E+02
  10.770  0.0000E+00  0.7000E+02
  10.780  0.0000E+00  0.7000E+02
  10.790  0.0000E+00  0.7000E+02
  10.800  0.0000E+00  0.7000E+02
  10.810  0.0000E+00  0.7000E+02
  10.820  0.0000E+00  0.7000E+02
  10.830  0.0000E+00  0.7000E+02
  10.840  0.0000E+00  0.7000E+02
  10.850  0.0000E+00  0.7000E+02
  10.860  0.0000E+00  0.7000E+02
  10.870  0.0000E+00  0.7000E+02
  10.880  0.0000E+00  0.7000E+02
  10.890  0.0000E+00  0.7000E+02
  10.900  0.0000E+00  0.7000E+02
  10.910  0.0000E+00  0.7000E+02
  10.920  0.0000E+00  0.7000E+02
  10.930  0.0000E+00  0.7000E+02
  10.940  0.0000E+00  0.7000E+02
  10.950  0.0000E+00  0.7000E+02
  10.960  0.0000E+00  0.7000E+02
  10.970  0.0000E+00  0.7000E+02
  10.980  0.0000E+00  0.7000E+02
  10.990  0.0000E+00  0.7000E+02
  11.000  0.0000E+00  0.7000E+02
  11.010  0.0000E+00  0.7000E+02
  11.020  0.0000E+00  0.7000E+02
  11.030  0.0000E+00  0.7000E+02
  11.040  0.0000E+00  0.7000E+02
  11.050  0.0000E+00  0.7000E+02
  11.060  0.0000E+00  0.7000E+02
  11.070  0.0000E+00  0.7000E+02
  11.080  0.0000E+00  0.7000E+02
  11.090  0.0000E+00  0.7000E+02
  11.100  0.0000E+00  0.7000E+02
  11.110  0.0000E+00  0.7000E+02
  11.120  0.0000E+00  0.7000E+02
  11.130  0.0000E+00  0.7000E+02
  11.140  0.0000E+00  0.7000E+02
  11.150  0.0000E+00  0.7000E+02
  11.160  0.0000E+00  0.7000E+02
  11.170  0.0000E+00  0.7000E+02
  11.180  0.0000E+00  0.7000E+02
  11.190  0.0000E+00  0.7000E+02
  11.200  0.0000E+00  0.7000E+02
  11.210  0.0000E+00  0.7000E+02
  11.220  0.0000E+00  0.7000E+02
  11.230  0.0000E+00  0.7000E+02
  11.240  0.0000E+00  0.7000E+02
  11.250  0.0000E+00  0.7000E+02
  11.260  0.0000E+00  0.7000E+02
  11.270  0.0000E+00  0.7000E+02
  11.280  0.0000E+00  0.7000E+02
  11.290  0.0000E+00  0.7000E+02
  11.300  0.0000E+00  0.7000E+02
  11.310  0.0000E+00  0.7000E+02
  11.320  0.0000E+00  0.7000E+02
  11.330  0.0000E+00  0.7000E+02
  11.340  0.0000E+00  0.7000E+02
  11.350  0.0000E+00  0.7000E+02
  11.360  0.0000E+00  0.7000E+02
  11.370  0.0000E+00  0.7000E+02
  11.380  0.0000E+00  0.7000E+02
  11.390  0.0000E+00  0.7000E+02
  11.400  0.0000E+00  0.7000E+02
  11.410  0.0000E+00  0.7000E+02
  11.420  0.0000E+00  0.7000E+02
  11.430  0.0000E+00  0.7000E+02
  11.440  0.0000E+00  0.7000E+02
  11.450  0.0000E+00  0.7000E+02
  11.460  0.0000E+00  0.7000E+02
  11.470  0.0000E+00  0.7000E+02
  11.480  0.0000E+00  0.7000E+02
  11.490  0.0000E+00  0.7000E+02
  11.500  0.0000E+00  0.7000E+02
  11.510  0.0000E+00  0.7000E+02
  11.520  0.0000E+00  0.7000E+02
  11.530  0.0000E+00  0.7000E+02
  11.540  0.0000E+00  0.7000E+02
  11.550  0.0000E+00  0.7000E+02
  11.560  0.0000E+00  0.7000E+02
  11.570  0.0000E+00  0.7000E+02
  11.580  0.0000E+00  0.7000E+02
  11.590  0.0000E+00  0.7000E+02
  11.600  0.0000E+00  0.7000E+02
  11.610  0.0000E+00  0.7000E+02
  11.620  0.0000E+00  0.7000E+02
  11.630  0.0000E+00  0.7000E+02
  11.640  0.0000E+00  0.7000E+02
  11.650  0.0000E+00  0.7000E+02
  11.660  0.0000E+00  0.7000E+02
  11.670  0.0000E+00  0.7000E+02
  11.680  0.0000E+00  0.7000E+02
  11.690  0.0000E+00  0.7000E+02
  11.700  0.0000E+00  0.7000E+02
  11.710  0.0000E+00  0.7000E+02
  11.720  0.0000E+00  0.7000E+02
  11.730  0.0000E+00  0.7000E+02
  11.740  0.0000E+00  0.7000E+02
  11.750  0.0000E+00  0.7000E+02
  11.760  0.0000E+00  0.7000E+02
  11.770  0.0000E+00  0.7000E+02
  11.780  0.0000E+00  0.7000E+02
  11.790  0.0000E+00  0.7000E+02
  11.800  0.0000E+00  0.7000E+02
  11.810  0.0000E+00  0.7000E+02
  11.820  0.0000E+00  0.7000E+02
  11.830  0.0000E+00  0.7000E+02
  11.840  0.0000E+00  0.7000E+02
  11.850  0.0000E+00  0.7000E+02
  11.860  0.0000E+00  0.7000E+02
  11.870  0.0000E+00  0.7000E+02
  11.880  0.0000E+00  0.7000E+02
  11.890  0.0000E+00  0.7000E+02
  11.900  0.0000E+00  0.7000E+02
  11.910  0.0000E+00  0.7000E+02
  11.920  0.0000E+00  0.7000E+02
  11.930  0.0000E+00  0.7000E+02
  11.940  0.0000E+00  0.7000E+02
  11.950  0.0000E+00  0.7000E+02
  11.960  0.0000E+00  0.7000E+02
  11.970  0.0000E+00  0.7000E+02
  11.980  0.0000E+00  0.7000E+02
  11.990  0.0000E+00  0.7000E+02
  12.000  0.0000E+00  0.7000E+02
  12.010  0.0000E+00  0.7000E+02
  12.020  0.0000E+00  0.7000E+02
  12.030  0.0000E+00  0.7000E+02
  12.040  0.0000E+00  0.7000E+02
  12.050  0.0000E+00  0.7000E+02
  12.060  0.0000E+00  0.7000E+02
  12.070  0.0000E+00  0.7000E+02
  12.080  0.0000E+00  0.7000E+02
  12.090  0.0000E+00  0.7000E+02
  12.100  0.0000E+00  0.7000E+02
  12.110  0.0000E+00  0.7000E+02
  12.120  0.0000E+00  0.7000E+02
  12.130  0.0000E+00  0.7000E+02
  12.140  0.0000E+00  0.7000E+02
  12.150  0.0000E+00  0.7000E+02
  12.160  0.0000E+00  0.7000E+02
  12.170  0.0000E+00  0.7000E+02
  12.180  0.0000E+00  0.7000E+02
  12.190  0.0000E+00  0.7000E+02
  12.200  0.0000E+00  0.7000E+02
  12.210  0.0000E+00  0.7000E+02
  12.220  0.0000E+00  0.7000E+02
  12.230  0.0000E+00  0.7000E+02
  12.240  0.0000E+00  0.7000E+02
  12.250  0.0000E+00  0.7000E+02
  12.260  0.0000E+00  0.7000E+02
  12.270  0.0000E+00  0.7000E+02
  12.280  0.0000E+00  0.7000E+02
  12.290  0.0000E+00  0.7000E+02
  12.300  0.0000E+00  0.7000E+02
  12.310  0.0000E+00  0.7000E+02
  12.320  0.0000E+00  0.7000E+02
  12.330  0.0000E+00  0.7000E+02
  12.340  0.0000E+00  0.7000E+02
  12.350  0.0000E+00  0.7000E+02
  12.360  0.0000E+00  0.7000E+02
  12.370  0.0000E+00  0.7000E+02
  12.380  0.0000E+00  0.7000E+02
  12.390  0.0000E+00  0.7000E+02
  12.400  0.0000E+00  0.7000E+02
  12.410  0.0000E+00  0.7000E+02
  12.420  0.0000E+00  0.7000E+02
  12.430  0.0000E+00  0.7000E+02
  12.440  0.0000E+00  0.7000E+02
  12.450  0.0000E+00  0.7000E+02
  12.460  0.0000E+00  0.7000E+02
  12.470  0.0000E+00  0.7000E+02
  12.480  0.0000E+00  0.7000E+02
  12.490  0.0000E+00  0.7000E+02
  12.500  0.0000E+00  0.7000E+02
  12.510  0.0000E+00  0.7000E+02
  12.520  0.0000E+00  0.7000E+02
  12.530  0.0000E+00  0.7000E+02
  12.540  0.0000E+00  0.7000E+02
  12.550  0.0000E+00  0.7000E+02
  12.560  0.0000E+00  0.7000E+02
  12.570  0.0000E+00  0.7000E+02
  12.580  0.0000E+00  0.7000E+02
  12.590  0.0000E+00  0.7000E+02
  12.600  0.0000E+00  0.7000E+02
  12.610  0.0000E+00  0.7000E+02
  12.620  0.0000E+00  0.7000E+02
  12.630  0.0000E+00  0.7000E+02
  12.640  0.0000E+00  0.7000E+02
  12.650  0.0000E+00  0.7000E+02
  12.660  0.0000E+00  0.7000E+02
  12.670  0.0000E+00  0.7000E+02
  12.680  0.0000E+00  0.7000E+02
  12.690  0.0000E+00  0.7000E+02
  12.700  0.0000E+00  0.7000E+02
  12.710  0.0000E+00  0.7000E+02
  12.720  0.0000E+00  0.7000E+02
  12.730  0.0000E+00  0.7000E+02
  12.740  0.0000E+00  0.7000E+02
  12.750  0.0000E+00  0.7000E+02
  12.760  0.0000E+00  0.7000E+02
  12.770  0.0000E+00  0.7000E+02
  12.780  0.0000E+00  0.7000E+02
  12.790  0.0000E+00  0.7000E+02
  12.800  0.0000E+00  0.7000E+02
  12.810  0.0000E+00  0.7000E+02
  12.820  0.0000E+00  0.7000E+02
  12.830  0.0000E+00  0.7000E+02
  12.840  0.0000E+00  0.7000E+02
  12.850  0.0000E+00  0.7000E+02
  12.860  0.0000E+00  0.7000E+02
  12.870  0.0000E+00  0.7000E+02
  12.880  0.0000E+00  0.7000E+02
  12.890  0.0000E+00  0.7000E+02
  12.900  0.0000E+00  0.7000E+02
  12.910  0.0000E+00  0.7000E+02
  12.920  0.0000E+00  0.7000E+02
  12.930  0.0000E+00  0.7000E+02
  12.940  0.0000E+00  0.7000E+02
  12.950  0.0000E+00  0.7000E+02
  12.960  0.0000E+00  0.7000E+02
  12.970  0.0000E+00  0.7000E+02
  12.980  0.0000E+00  0.7000E+02
  12.990  0.0000E+00  0.7000E+02
  13.000  0.0000E+00  0.7000E+02
  13.010  0.0000E+00  0.7000E+02
  13.020  0.0000E+00  0.7000E+02
  13.030  0.0000E+00  0.7000E+02
  13.040  0.0000E+00  0.7000E+02
  13.050  0.0000E+00  0.7000E+02
  13.060  0.0000E+00  0.7000E+02
  13.070  0.0000E+00  0.7000E+02
  13.080  0.0000E+00  0.7000E+02
  13.090  0.0000E+00  0.7000E+02
  13.100  0.0000E+00  0.7000E+02
  13.110  0.0000E+00  0.7000E+02
  13.120  0.0000E+00  0.7000E+02
  13.130  0.0000E+00  0.7000E+02
  13.140  0.0000E+00  0.7000E+02
  13.150  0.0000E+00  0.7000E+02
  13.160  0.0000E+00  0.7000E+02
  13.170  0.0000E+00  0.7000E+02
  13.180  0.0000E+00  0.7000E+02
  13.190  0.0000E+00  0.7000E+02
  13.200  0.0000E+00  0.7000E+02
  13.210  0.0000E+00  0.7000E+02
  13.220  0.0000E+00  0.7000E+02
  13.230  0.0000E+00  0.7000E+02
  13.240  0.0000E+00  0.7000E+02
  13.250  0.0000E+00  0.7000E+02
  13.260  0.0000E+00  0.7000E+02
  13.270  0.0000E+00  0.7000E+02
  13.280  0.0000E+00  0.7000E+02
  13.290  0.0000E+00  0.7000E+02
  13.300  0.0000E+00  0.7000E+02
  13.310  0.0000E+00  0.7000E+02
  13.320  0.0000E+00  0.7000E+02
  13.330  0.0000E+00  0.7000E+02
  13.340  0.0000E+00  0.7000E+02
  13.350  0.0000E+00  0.7000E+02
  13.360  0.0000E+00  0.7000E+02
  13.370  0.0000E+00  0.7000E+02
  13.380  0.0000E+00  0.7000E+02
  13.390  0.0000E+00  0.7000E+02
  13.400  0.0000E+00  0.7000E+02
  13.410  0.0000E+00  0.7000E+02
  13.420  0.0000E+00  0.7000E+02
  13.430  0.0000E+00  0.7000E+02
  13.440  0.0000E+00  0.7000E+02
  13.450  0.0000E+00  0.7000E+02
  13.460  0.0000E+00  0.7000E+02
  13.470  0.0000E+00  0.7000E+02
  13.480  0.0000E+00  0.7000E+02
  13.490  0.0000E+00  0.7000E+02
  13.500  0.0000E+00  0.7000E+02
  13.510  0.0000E+00  0.7000E+02
  13.520  0.0000E+00  0.7000E+02
  13.530  0.0000E+00  0.7000E+02
  13.540  0.0000E+00  0.7000E+02
  13.550  0.0000E+00  0.7000E+02
  13.560  0.0000E+00  0.7000E+02
  13.570  0.0000E+00  0.7000E+02
  13.580  0.0000E+00  0.7000E+02
  13.590  0.0000E+00  0.7000E+02
  13.600  0.0000E+00  0.7000E+02
  13.610  0.0000E+00  0.7000E+02
  13.620  0.0000E+00  0.7000E+02
  13.630  0.0000E+00  0.7000E+02
  13.640  0.0000E+00  0.7000E+02
  13.650  0.0000E+00  0.7000E+02
  13.660  0.0000E+00  0.7000E+02
  13.670  0.0000E+00  0.7000E+02
  13.680  0.0000E+00  0.7000E+02
  13.690  0.0000E+00  0.7000E+02
  13.700  0.0000E+00  0.7000E+02
  13.710  0.0000E+00  0.7000E+02
  13.720  0.0000E+00  0.7000E+02
  13.730  0.0000E+00  0.7000E+02
  13.740  0.0000E+00  0.7000E+02
  13.750  0.0000E+00  0.7000E+02
  13.760  0.0000E+00  0.7000E+02
  13.770  0.0000E+00  0.7000E+02
  13.780  0.0000E+00  0.7000E+02
  13.790  0.0000E+00  0.7000E+02
  13.800  0.0000E+00  0.7000E+02
  13.810  0.0000E+00  0.7000E+02
  13.820  0.0000E+00  0.7000E+02
  13.830  0.0000E+00  0.7000E+02
  13.840  0.0000E+00  0.7000E+02
  13.850  0.0000E+00  0.7000E+02
  13.860  0.0000E+00  0.7000E+02
  13.870  0.0000E+00  0.7000E+02
  13.880  0.0000E+00  0.7000E+02
  13.890  0.0000E+00  0.7000E+02
  13.900  0.0000E+00  0.7000E+02
  13.910  0.0000E+00  0.7000E+02
  13.920  0.0000E+00  0.7000E+02
  13.930  0.0000E+00  0.7000E+02
  13.940  0.0000E+00  0.7000E+02
  13.950  0.0000E+00  0.7000E+02
  13.960  0.0000E+00  0.7000E+02
  13.970  0.0000E+00  0.7000E+02
  13.980  0.0000E+00  0.7000E+02
  13.990  0.0000E+00  0.7000E+02
  14.000  0.0000E+00  0.7000E+02
  14.010  0.0000E+00  0.7000E+02
  14.020  0.0000E+00  0.7000E+02
  14.030  0.0000E+00  0.7000E+02
  14.040  0.0000E+00  0.7000E+02
  14.050  0.0000E+00  0.7000E+02
  14.060  0.0000E+00  0.7000E+02
  14.070  0.0000E+00  0.7000E+02
  14.080  0.0000E+00  0.7000E+02
  14.090  0.0000E+00  0.7000E+02
  14.100  0.0000E+00  0.7000E+02
  14.110  0.0000E+00  0.7000E+02
  14.120  0.0000E+00  0.7000E+02
  14.130  0.0000E+00  0.7000E+02
  14.140  0.0000E+00  0.7000E+02
  14.150  0.0000E+00  0.7000E+02
  14.160  0.0000E+00  0.7000E+02
  14.170  0.0000E+00  0.7000E+02
  14.180  0.0000E+00  0.7000E+02
  14.190  0.0000E+00  0.7000E+02
  14.200  0.0000E+00  0.7000E+02
  14.210  0.0000E+00  0.7000E+02
  14.220  0.0000E+00  0.7000E+02
  14.230  0.0000E+00  0.7000E+02
  14.240  0.0000E+00  0.7000E+02
  14.250  0.0000E+00  0.7000E+02
  14.260  0.0000E+00  0.7000E+02
  14.270  0.0000E+00  0.7000E+02
  14.280  0.0000E+00  0.7000E+02
  14.290  0.0000E+00  0.7000E+02
  14.300  0.0000E+00  0.7000E+02
  14.310  0.0000E+00  0.7000E+02
  14.320  0.0000E+00  0.7000E+02
  14.330  0.0000E+00  0.7000E+02
  14.340  0.0000E+00  0.7000E+02
  14.350  0.0000E+00  0.7000E+02
  14.360  0.0000E+00  0.7000E+02
  14.370  0.0000E+00  0.7000E+02
  14.380  0.0000E+00  0.7000E+02
  14.390  0.0000E+00  0.7000E+02
  14.400  0.0000E+00  0.7000E+02
  14.410  0.0000E+00  0.7000E+02
  14.420  0.0000E+00  0.7000E+02
  14.430  0.0000E+00  0.7000E+02
  14.440  0.0000E+00  0.7000E+02
  14.450  0.0000E+00  0.7000E+02
  14.460  0.0000E+00  0.7000E+02
  14.470  0.0000E+00  0.7000E+02
  14.480  0.0000E+00  0.7000E+02
  14.490  0.0000E+00  0.7000E+02
  14.500  0.0000E+00  0.7000E+02
  14.510  0.0000E+00  0.7000E+02
  14.520  0.0000E+00  0.7000E+02
  14.530  0.0000E+00  0.7000E+02
  14.540  0.0000E+00  0.7000E+02
  14.550  0.0000E+00  0.7000E+02
  14.560  0.0000E+00  0.7000E+02
  14.570  0.0000E+00  0.7000E+02
  14.580  0.0000E+00  0.7000E+02
  14.590  0.0000E+00  0.7000E+02
  14.600  0.0000E+00  0.7000E+02
  14.610  0.0000E+00  0.7000E+02
  14.620  0.0000E+00  0.7000E+02
  14.630  0.0000E+00  0.7000E+02
  14.640  0.0000E+00  0.7000E+02
  14.650  0.0000E+00  0.7000E+02
  14.660  0.0000E+00  0.7000E+02
  14.670  0.0000E+00  0.7000E+02
  14.680  0.0000E+00  0.7000E+02
  14.690  0.0000E+00  0.7000E+02
  14.700  0.0000E+00  0.7000E+02
  14.710  0.0000E+00  0.7000E+02
  14.720  0.0000E+00  0.7000E+02
  14.730  0.0000E+00  0.7000E+02
  14.740  0.0000E+00  0.7000E+02
  14.750  0.0000E+00  0.7000E+02
  14.760  0.0000E+00  0.7000E+02
  14.770  0.0000E+00  0.7000E+02
  14.780  0.0000E+00  0.7000E+02
  14.790  0.0000E+00  0.7000E+02
  14.800  0.0000E+00  0.7000E+02
  14.810  0.0000E+00  0.7000E+02
  14.820  0.0000E+00  0.7000E+02
  14.830  0.0000E+00  0.7000E+02
  14.840  0.0000E+00  0.7000E+02
  14.850  0.0000E+00  0.7000E+02
  14.860  0.0000E+00  0.7000E+02
  14.870  0.0000E+00  0.7000E+02
  14.880  0.0000E+00  0.7000E+02
  14.890  0.0000E+00  0.7000E+02
  14.900  0.0000E+00  0.7000E+02
  14.910  0.0000E+00  0.7000E+02
  14.920  0.0000E+00  0.7000E+02
  14.930  0.0000E+00  0.7000E+02
  14.940  0.0000E+00  0.7000E+02
  14.950  0.0000E+00  0.7000E+02
  14.960  0.0000E+00  0.7000E+02
  14.970  0.0000E+00  0.7000E+02
  14.980  0.0000E+00  0.7000E+02
  14.990  0.0000E+00  0.7000E+02
  15.000  0.0000E+00  0.7000E+02
  15.010  0.0000E+00  0.7000E+02
  15.020  0.0000E+00  0.7000E+02
  15.030  0.0000E+00  0.7000E+02
  15.040  0.0000E+00  0.7000E+02
  15.050  0.0000E+00  0.7000E+02
  15.060  0.0000E+00  0.7000E+02
  15.070  0.0000E+00  0.7000E+02
  15.080  0.0000E+00  0.7000E+02
  15.090  0.0000E+00  0.7000E+02
  15.100  0.0000E+00  0.7000E+02
  15.110  0.0000E+00  0.7000E+02
  15.120  0.0000E+00  0.7000E+02
  15.130  0.0000E+00  0.7000E+02
  15.140  0.0000E+00  0.7000E+02
  15.150  0.0000E+00  0.7000E+02
  15.160  0.0000E+00  0.7000E+02
  15.170  0.0000E+00  0.7000E+02
  15.180  0.0000E+00  0.7000E+02
  15.190  0.0000E+00  0.7000E+02
  15.200  0.0000E+00  0.7000E+02
  15.210  0.0000E+00  0.7000E+02
  15.220  0.0000E+00  0.7000E+02
  15.230  0.0000E+00  0.7000E+02
  15.240  0.0000E+00  0.7000E+02
  15.250  0.0000E+00  0.7000E+02
  15.260  0.0000E+00  0.7000E+02
  15.270  0.0000E+00  0.7000E+02
  15.280  0.0000E+00  0.7000E+02
  15.290  0.0000E+00  0.7000E+02
  15.300  0.0000E+00  0.7000E+02
  15.310  0.0000E+00  0.7000E+02
  15.320  0.0000E+00  0.7000E+02
  15.330  0.0000E+00  0.7000E+02
  15.340  0.0000E+00  0.7000E+02
  15.350  0.0000E+00  0.7000E+02
  15.360  0.0000E+00  0.7000E+02
  15.370  0.0000E+00  0.7000E+02
  15.380  0.0000E+00  0.7000E+02
  15.390  0.0000E+00  0.7000E+02
  15.400  0.0000E+00  0.7000E+02
  15.410  0.0000E+00  0.7000E+02
  15.420  0.0000E+00  0.7000E+02
  15.430  0.0000E+00  0.7000E+02
  15.440  0.0000E+00  0.7000E+02
  15.450  0.0000E+00  0.7000E+02
  15.460  0.0000E+00  0.7000E+02
  15.470  0.0000E+00  0.7000E+02
  15.480  0.0000E+00  0.7000E+02
  15.490  0.0000E+00  0.7000E+02
  15.500  0.0000E+00  0.7000E+02
  15.510  0.0000E+00  0.7000E+02
  15.520  0.0000E+00  0.7000E+02
  15.530  0.0000E+00  0.7000E+02
  15.540  0.0000E+00  0.7000E+02
  15.550  0.0000E+00  0.7000E+02
  15.560  0.0000E+00  0.7000E+02
  15.570  0.0000E+00  0.7000E+02
  15.580  0.0000E+00  0.7000E+02
  15.590  0.0000E+00  0.7000E+02
  15.600  0.0000E+00  0.7000E+02
  15.610  0.0000E+00  0.7000E+02
  15.620  0.0000E+00  0.7000E+02
  15.630  0.0000E+00  0.7000E+02
  15.640  0.0000E+00  0.7000E+02
  15.650  0.0000E+00  0.7000E+02
  15.660  0.0000E+00  0.7000E+02
  15.670  0.0000E+00  0.7000E+02
  15.680  0.0000E+00  0.7000E+02
  15.690  0.0000E+00  0.7000E+02
  15.700  0.0000E+00  0.7000E+02
  15.710  0.0000E+00  0.7000E+02
  15.720  0.0000E+00  0.7000E+02
  15.730  0.0000E+00  0.7000E+02
  15.740  0.0000E+00  0.7000E+02
  15.750  0.0000E+00  0.7000E+02
  15.760  0.0000E+00  0.7000E+02
  15.770  0.0000E+00  0.7000E+02
  15.780  0.0000E+00  0.7000E+02
  15.790  0.0000E+00  0.7000E+02
  15.800  0.0000E+00  0.7000E+02
  15.810  0.0000E+00  0.7000E+02
  15.820  0.0000E+00  0.7000E+02
  15.830  0.0000E+00  0.7000E+02
  15.840  0.0000E+00  0.7000E+02
  15.850  0.0000E+00  0.7000E+02
  15.860  0.0000E+00  0.7000E+02
  15.870  0.0000E+00  0.7000E+02
  15.880  0.0000E+00  0.7000E+02
  15.890  0.0000E+00  0.7000E+02
  15.900  0.0000E+00  0.7000E+02
  15.910  0.0000E+00  0.7000E+02
  15.920  0.0000E+00  0.7000E+02
  15.930  0.0000E+00  0.7000E+02
  15.940  0.0000E+00  0.7000E+02
  15.950  0.0000E+00  0.7000E+02
  15.960  0.0000E+00  0.7000E+02
  15.970  0.0000E+00  0.7000E+02
  15.980  0.0000E+00  0.7000E+02
  15.990  0.0000E+00  0.7000E+02
  16.000  0.0000E+00  0.7000E+02
