#  E (eV)   dos(E)     Int dos(E) EFermi =   -0.382 eV
  -9.000 -0.3523E-80 -0.3523E-82
  -8.990 -0.3528E-80 -0.7051E-82
  -8.980 -0.3533E-80 -0.1058E-81
  -8.970 -0.3538E-80 -0.1412E-81
  -8.960 -0.3543E-80 -0.1767E-81
  -8.950 -0.3548E-80 -0.2121E-81
  -8.940 -0.3553E-80 -0.2477E-81
  -8.930 -0.3558E-80 -0.2832E-81
  -8.920 -0.3563E-80 -0.3189E-81
  -8.910 -0.3568E-80 -0.3546E-81
  -8.900 -0.3573E-80 -0.3903E-81
  -8.890 -0.3578E-80 -0.4261E-81
  -8.880 -0.3583E-80 -0.4619E-81
  -8.870 -0.3588E-80 -0.4978E-81
  -8.860 -0.3593E-80 -0.5337E-81
  -8.850 -0.3598E-80 -0.5697E-81
  -8.840 -0.3603E-80 -0.6057E-81
  -8.830 -0.3608E-80 -0.6418E-81
  -8.820 -0.3613E-80 -0.6779E-81
  -8.810 -0.3618E-80 -0.7141E-81
  -8.800 -0.3623E-80 -0.7504E-81
  -8.790 -0.3628E-80 -0.7866E-81
  -8.780 -0.3633E-80 -0.8230E-81
  -8.770 -0.3638E-80 -0.8593E-81
  -8.760 -0.3643E-80 -0.8958E-81
  -8.750 -0.3648E-80 -0.9323E-81
  -8.740 -0.3653E-80 -0.9688E-81
  -8.730 -0.3658E-80 -0.1005E-80
  -8.720 -0.3663E-80 -0.1042E-80
  -8.710 -0.3668E-80 -0.1079E-80
  -8.700 -0.3673E-80 -0.1115E-80
  -8.690 -0.3678E-80 -0.1152E-80
  -8.680 -0.3683E-80 -0.1189E-80
  -8.670 -0.3688E-80 -0.1226E-80
  -8.660 -0.3693E-80 -0.1263E-80
  -8.650 -0.3698E-80 -0.1300E-80
  -8.640 -0.3703E-80 -0.1337E-80
  -8.630 -0.3708E-80 -0.1374E-80
  -8.620 -0.3713E-80 -0.1411E-80
  -8.610 -0.3718E-80 -0.1448E-80
  -8.600 -0.3723E-80 -0.1486E-80
  -8.590 -0.3728E-80 -0.1523E-80
  -8.580 -0.3733E-80 -0.1560E-80
  -8.570 -0.3738E-80 -0.1598E-80
  -8.560 -0.3743E-80 -0.1635E-80
  -8.550 -0.3748E-80 -0.1672E-80
  -8.540 -0.3753E-80 -0.1710E-80
  -8.530 -0.3758E-80 -0.1748E-80
  -8.520 -0.3764E-80 -0.1785E-80
  -8.510 -0.3769E-80 -0.1823E-80
  -8.500 -0.3774E-80 -0.1861E-80
  -8.490 -0.3779E-80 -0.1898E-80
  -8.480 -0.3784E-80 -0.1936E-80
  -8.470 -0.3789E-80 -0.1974E-80
  -8.460 -0.3794E-80 -0.2012E-80
  -8.450 -0.3799E-80 -0.2050E-80
  -8.440 -0.3804E-80 -0.2088E-80
  -8.430 -0.3809E-80 -0.2126E-80
  -8.420 -0.3814E-80 -0.2164E-80
  -8.410 -0.3819E-80 -0.2202E-80
  -8.400 -0.3824E-80 -0.2241E-80
  -8.390 -0.3829E-80 -0.2279E-80
  -8.380 -0.3834E-80 -0.2317E-80
  -8.370 -0.3839E-80 -0.2356E-80
  -8.360 -0.3844E-80 -0.2394E-80
  -8.350  0.8583E-80 -0.2308E-80
  -8.340  0.3684E-71  0.3684E-73
  -8.330  0.3698E-63  0.3698E-65
  -8.320  0.1257E-55  0.1257E-57
  -8.310  0.1447E-48  0.1447E-50
  -8.300  0.5640E-42  0.5640E-44
  -8.290  0.7440E-36  0.7440E-38
  -8.280  0.3322E-30  0.3322E-32
  -8.270  0.5019E-25  0.5019E-27
  -8.260  0.2565E-20  0.2565E-22
  -8.250  0.4430E-16  0.4431E-18
  -8.240  0.2585E-12  0.2586E-14
  -8.230  0.5092E-09  0.5094E-11
  -8.220  0.3378E-06  0.3383E-08
  -8.210  0.7535E-04  0.7569E-06
  -8.200  0.5640E-02  0.5716E-04
  -8.190  0.1418E+00  0.1476E-02
  -8.180  0.1212E+01  0.1360E-01
  -8.170  0.3654E+01  0.5014E-01
  -8.160  0.4199E+01  0.9213E-01
  -8.150  0.2181E+01  0.1139E+00
  -8.140  0.1390E+01  0.1278E+00
  -8.130  0.2158E+01  0.1494E+00
  -8.120  0.1727E+01  0.1667E+00
  -8.110  0.1004E+01  0.1767E+00
  -8.100  0.5338E+00  0.1821E+00
  -8.090  0.1187E+01  0.1939E+00
  -8.080  0.1808E+01  0.2120E+00
  -8.070  0.1387E+01  0.2259E+00
  -8.060  0.1121E+01  0.2371E+00
  -8.050  0.6809E+00  0.2439E+00
  -8.040  0.8731E-01  0.2448E+00
  -8.030  0.7688E+00  0.2525E+00
  -8.020  0.1300E+01  0.2655E+00
  -8.010  0.1060E+01  0.2761E+00
  -8.000  0.1260E+01  0.2887E+00
  -7.990  0.1177E+01  0.3004E+00
  -7.980  0.8625E+00  0.3091E+00
  -7.970  0.2370E-01  0.3093E+00
  -7.960  0.3699E-01  0.3097E+00
  -7.950  0.8167E+00  0.3178E+00
  -7.940  0.1173E+01  0.3296E+00
  -7.930  0.4752E+00  0.3343E+00
  -7.920  0.8900E+00  0.3432E+00
  -7.910  0.1347E+01  0.3567E+00
  -7.900  0.1183E+01  0.3685E+00
  -7.890  0.9761E+00  0.3783E+00
  -7.880  0.1757E+01  0.3959E+00
  -7.870  0.4229E+01  0.4381E+00
  -7.860  0.3659E+01  0.4747E+00
  -7.850  0.2634E+01  0.5011E+00
  -7.840  0.2554E+01  0.5266E+00
  -7.830  0.1008E+01  0.5367E+00
  -7.820  0.1609E+01  0.5528E+00
  -7.810  0.2611E+01  0.5789E+00
  -7.800  0.2289E+01  0.6018E+00
  -7.790  0.1799E+01  0.6198E+00
  -7.780  0.8326E+00  0.6281E+00
  -7.770  0.9259E+00  0.6374E+00
  -7.760  0.3373E+00  0.6407E+00
  -7.750  0.9012E+00  0.6497E+00
  -7.740  0.2384E+01  0.6736E+00
  -7.730  0.1729E+01  0.6909E+00
  -7.720  0.1064E+01  0.7015E+00
  -7.710  0.1088E+01  0.7124E+00
  -7.700  0.1130E+01  0.7237E+00
  -7.690  0.9148E+00  0.7329E+00
  -7.680  0.1612E+01  0.7490E+00
  -7.670  0.2169E+01  0.7707E+00
  -7.660  0.1405E+01  0.7847E+00
  -7.650  0.8101E+00  0.7928E+00
  -7.640  0.2163E-01  0.7930E+00
  -7.630  0.1175E+00  0.7942E+00
  -7.620  0.9771E+00  0.8040E+00
  -7.610  0.1056E+01  0.8145E+00
  -7.600  0.5673E+00  0.8202E+00
  -7.590  0.2264E+01  0.8428E+00
  -7.580  0.3348E+01  0.8763E+00
  -7.570  0.9057E+00  0.8854E+00
  -7.560  0.1527E+00  0.8869E+00
  -7.550  0.1092E+01  0.8978E+00
  -7.540  0.5363E+00  0.9032E+00
  -7.530 -0.1321E+00  0.9019E+00
  -7.520  0.4116E-01  0.9023E+00
  -7.510  0.7559E+00  0.9098E+00
  -7.500  0.1963E+01  0.9295E+00
  -7.490  0.2395E+01  0.9534E+00
  -7.480  0.1582E+01  0.9692E+00
  -7.470  0.5916E+00  0.9752E+00
  -7.460  0.9798E+00  0.9850E+00
  -7.450  0.6122E+00  0.9911E+00
  -7.440 -0.8760E-01  0.9902E+00
  -7.430  0.3403E+00  0.9936E+00
  -7.420  0.1798E+01  0.1012E+01
  -7.410  0.2187E+01  0.1033E+01
  -7.400  0.5731E+00  0.1039E+01
  -7.390  0.7340E+00  0.1047E+01
  -7.380  0.9496E+00  0.1056E+01
  -7.370  0.5138E-01  0.1057E+01
  -7.360  0.8293E-01  0.1057E+01
  -7.350  0.1365E+01  0.1071E+01
  -7.340  0.2895E+01  0.1100E+01
  -7.330  0.2021E+01  0.1120E+01
  -7.320  0.3848E+00  0.1124E+01
  -7.310 -0.2162E+00  0.1122E+01
  -7.300 -0.7817E-01  0.1121E+01
  -7.290  0.2019E+00  0.1123E+01
  -7.280  0.1228E+01  0.1135E+01
  -7.270  0.2297E+01  0.1158E+01
  -7.260  0.1284E+01  0.1171E+01
  -7.250  0.1061E+01  0.1182E+01
  -7.240  0.1998E+01  0.1202E+01
  -7.230  0.1006E+01  0.1212E+01
  -7.220 -0.1383E+00  0.1210E+01
  -7.210  0.1038E-01  0.1211E+01
  -7.200  0.7825E+00  0.1218E+01
  -7.190  0.1244E+01  0.1231E+01
  -7.180  0.8409E+00  0.1239E+01
  -7.170  0.1563E+01  0.1255E+01
  -7.160  0.2343E+01  0.1278E+01
  -7.150  0.1862E+01  0.1297E+01
  -7.140  0.3369E+00  0.1300E+01
  -7.130  0.1751E+00  0.1302E+01
  -7.120  0.1570E+01  0.1318E+01
  -7.110  0.2152E+01  0.1339E+01
  -7.100  0.1208E+01  0.1351E+01
  -7.090  0.1175E+01  0.1363E+01
  -7.080  0.1925E+01  0.1382E+01
  -7.070  0.4024E+01  0.1423E+01
  -7.060  0.4469E+01  0.1467E+01
  -7.050  0.4963E+01  0.1517E+01
  -7.040  0.4472E+01  0.1562E+01
  -7.030  0.6546E+00  0.1568E+01
  -7.020 -0.5350E+00  0.1563E+01
  -7.010  0.5400E+00  0.1568E+01
  -7.000  0.2043E+01  0.1589E+01
  -6.990  0.1774E+01  0.1606E+01
  -6.980  0.2764E+00  0.1609E+01
  -6.970  0.6783E+00  0.1616E+01
  -6.960  0.1104E+01  0.1627E+01
  -6.950  0.5374E+00  0.1632E+01
  -6.940  0.1551E+01  0.1648E+01
  -6.930  0.2910E+01  0.1677E+01
  -6.920  0.1866E+01  0.1696E+01
  -6.910  0.3892E-02  0.1696E+01
  -6.900  0.1230E+00  0.1697E+01
  -6.890  0.1091E+01  0.1708E+01
  -6.880  0.8260E+00  0.1716E+01
  -6.870 -0.4407E-01  0.1716E+01
  -6.860  0.1773E+00  0.1717E+01
  -6.850  0.1541E+01  0.1733E+01
  -6.840  0.3145E+01  0.1764E+01
  -6.830  0.2101E+01  0.1785E+01
  -6.820  0.6006E+00  0.1791E+01
  -6.810  0.9491E+00  0.1801E+01
  -6.800  0.3590E+00  0.1804E+01
  -6.790 -0.1930E-01  0.1804E+01
  -6.780  0.7025E+00  0.1811E+01
  -6.770  0.1200E+01  0.1823E+01
  -6.760  0.5091E+00  0.1828E+01
  -6.750  0.1066E+01  0.1839E+01
  -6.740  0.2470E+01  0.1864E+01
  -6.730  0.2348E+01  0.1887E+01
  -6.720  0.2142E+01  0.1909E+01
  -6.710  0.7685E+00  0.1916E+01
  -6.700 -0.1166E+00  0.1915E+01
  -6.690  0.9946E+00  0.1925E+01
  -6.680  0.2754E+01  0.1953E+01
  -6.670  0.2484E+01  0.1977E+01
  -6.660  0.4654E+00  0.1982E+01
  -6.650 -0.1646E+00  0.1980E+01
  -6.640  0.6480E+00  0.1987E+01
  -6.630  0.1190E+01  0.1999E+01
  -6.620  0.3233E+00  0.2002E+01
  -6.610 -0.1513E+00  0.2000E+01
  -6.600 -0.1520E-01  0.2000E+01
  -6.590  0.3275E+00  0.2004E+01
  -6.580  0.1268E+01  0.2016E+01
  -6.570  0.2183E+01  0.2038E+01
  -6.560  0.2597E+01  0.2064E+01
  -6.550  0.1998E+01  0.2084E+01
  -6.540  0.2551E+01  0.2110E+01
  -6.530  0.4081E+01  0.2150E+01
  -6.520  0.8990E+01  0.2240E+01
  -6.510  0.1236E+02  0.2364E+01
  -6.500  0.7149E+01  0.2435E+01
  -6.490  0.5483E+01  0.2490E+01
  -6.480  0.6688E+01  0.2557E+01
  -6.470  0.7018E+01  0.2627E+01
  -6.460  0.6346E+01  0.2691E+01
  -6.450  0.5342E+01  0.2744E+01
  -6.440  0.4062E+01  0.2785E+01
  -6.430  0.3298E+01  0.2818E+01
  -6.420  0.5150E+01  0.2869E+01
  -6.410  0.7627E+01  0.2946E+01
  -6.400  0.5397E+01  0.2999E+01
  -6.390  0.2417E+01  0.3024E+01
  -6.380  0.1051E+01  0.3034E+01
  -6.370  0.1379E+01  0.3048E+01
  -6.360  0.3791E+01  0.3086E+01
  -6.350  0.4332E+01  0.3129E+01
  -6.340  0.2374E+01  0.3153E+01
  -6.330  0.1859E+01  0.3172E+01
  -6.320  0.1826E+01  0.3190E+01
  -6.310  0.3092E+01  0.3221E+01
  -6.300  0.2433E+01  0.3245E+01
  -6.290  0.2359E+01  0.3269E+01
  -6.280  0.2953E+01  0.3298E+01
  -6.270  0.3400E+01  0.3332E+01
  -6.260  0.3782E+01  0.3370E+01
  -6.250  0.2592E+01  0.3396E+01
  -6.240  0.2108E+01  0.3417E+01
  -6.230  0.3804E+01  0.3455E+01
  -6.220  0.3432E+01  0.3489E+01
  -6.210  0.4684E+01  0.3536E+01
  -6.200  0.9259E+01  0.3629E+01
  -6.190  0.8789E+01  0.3717E+01
  -6.180  0.4655E+01  0.3763E+01
  -6.170  0.7557E+01  0.3839E+01
  -6.160  0.7621E+01  0.3915E+01
  -6.150  0.3279E+01  0.3948E+01
  -6.140  0.3171E+01  0.3979E+01
  -6.130  0.4486E+01  0.4024E+01
  -6.120  0.3120E+01  0.4056E+01
  -6.110  0.4128E+01  0.4097E+01
  -6.100  0.3829E+01  0.4135E+01
  -6.090  0.2490E+01  0.4160E+01
  -6.080  0.4196E+01  0.4202E+01
  -6.070  0.5034E+01  0.4252E+01
  -6.060  0.3609E+01  0.4288E+01
  -6.050  0.1609E+01  0.4304E+01
  -6.040  0.2135E+01  0.4326E+01
  -6.030  0.2109E+01  0.4347E+01
  -6.020  0.1861E+01  0.4366E+01
  -6.010  0.4744E+01  0.4413E+01
  -6.000  0.6816E+01  0.4481E+01
  -5.990  0.3273E+01  0.4514E+01
  -5.980  0.1596E+01  0.4530E+01
  -5.970  0.2304E+01  0.4553E+01
  -5.960  0.2848E+01  0.4581E+01
  -5.950  0.2938E+01  0.4611E+01
  -5.940  0.3386E+01  0.4645E+01
  -5.930  0.3460E+01  0.4679E+01
  -5.920  0.4108E+01  0.4720E+01
  -5.910  0.4622E+01  0.4767E+01
  -5.900  0.2198E+01  0.4788E+01
  -5.890  0.2882E+01  0.4817E+01
  -5.880  0.3901E+01  0.4856E+01
  -5.870  0.2328E+01  0.4880E+01
  -5.860  0.1016E+01  0.4890E+01
  -5.850  0.1289E+01  0.4903E+01
  -5.840  0.1953E+01  0.4922E+01
  -5.830  0.2047E+01  0.4943E+01
  -5.820  0.2301E+01  0.4966E+01
  -5.810  0.3446E+01  0.5000E+01
  -5.800  0.4586E+01  0.5046E+01
  -5.790  0.5790E+01  0.5104E+01
  -5.780  0.6229E+01  0.5166E+01
  -5.770  0.3617E+01  0.5202E+01
  -5.760  0.3731E+01  0.5240E+01
  -5.750  0.5318E+01  0.5293E+01
  -5.740  0.6001E+01  0.5353E+01
  -5.730  0.7191E+01  0.5425E+01
  -5.720  0.9124E+01  0.5516E+01
  -5.710  0.6615E+01  0.5582E+01
  -5.700  0.1904E+01  0.5601E+01
  -5.690  0.1894E+01  0.5620E+01
  -5.680  0.3983E+01  0.5660E+01
  -5.670  0.4550E+01  0.5705E+01
  -5.660  0.2877E+01  0.5734E+01
  -5.650  0.6863E+00  0.5741E+01
  -5.640  0.3014E+00  0.5744E+01
  -5.630  0.1425E+01  0.5758E+01
  -5.620  0.2046E+01  0.5779E+01
  -5.610  0.2261E+01  0.5801E+01
  -5.600  0.2276E+01  0.5824E+01
  -5.590  0.1346E+01  0.5838E+01
  -5.580  0.1091E+01  0.5849E+01
  -5.570  0.1442E+01  0.5863E+01
  -5.560  0.2572E+01  0.5889E+01
  -5.550  0.2612E+01  0.5915E+01
  -5.540  0.2615E+01  0.5941E+01
  -5.530  0.2431E+01  0.5965E+01
  -5.520  0.2146E+01  0.5987E+01
  -5.510  0.2024E+01  0.6007E+01
  -5.500  0.2589E+01  0.6033E+01
  -5.490  0.2426E+01  0.6057E+01
  -5.480  0.3510E+01  0.6092E+01
  -5.470  0.3613E+01  0.6128E+01
  -5.460  0.9927E+00  0.6138E+01
  -5.450  0.9725E-01  0.6139E+01
  -5.440  0.2357E+01  0.6163E+01
  -5.430  0.4312E+01  0.6206E+01
  -5.420  0.3528E+01  0.6241E+01
  -5.410  0.3498E+01  0.6276E+01
  -5.400  0.2724E+01  0.6303E+01
  -5.390  0.1072E+01  0.6314E+01
  -5.380  0.9464E+00  0.6324E+01
  -5.370  0.1853E+01  0.6342E+01
  -5.360  0.3018E+01  0.6372E+01
  -5.350  0.2648E+01  0.6399E+01
  -5.340  0.6991E+00  0.6406E+01
  -5.330  0.9141E+00  0.6415E+01
  -5.320  0.1229E+01  0.6427E+01
  -5.310  0.2945E+01  0.6457E+01
  -5.300  0.4662E+01  0.6503E+01
  -5.290  0.3527E+01  0.6539E+01
  -5.280  0.2402E+01  0.6563E+01
  -5.270  0.2653E+01  0.6589E+01
  -5.260  0.3962E+01  0.6629E+01
  -5.250  0.4373E+01  0.6672E+01
  -5.240  0.3461E+01  0.6707E+01
  -5.230  0.2887E+01  0.6736E+01
  -5.220  0.3748E+01  0.6773E+01
  -5.210  0.3013E+01  0.6804E+01
  -5.200  0.2910E+01  0.6833E+01
  -5.190  0.3796E+01  0.6871E+01
  -5.180  0.3250E+01  0.6903E+01
  -5.170  0.2471E+01  0.6928E+01
  -5.160  0.1744E+01  0.6945E+01
  -5.150  0.1839E+01  0.6964E+01
  -5.140  0.3845E+01  0.7002E+01
  -5.130  0.4838E+01  0.7050E+01
  -5.120  0.3593E+01  0.7086E+01
  -5.110  0.3092E+01  0.7117E+01
  -5.100  0.1209E+01  0.7129E+01
  -5.090  0.5920E+00  0.7135E+01
  -5.080  0.1215E+01  0.7147E+01
  -5.070  0.1397E+01  0.7161E+01
  -5.060  0.1808E+01  0.7180E+01
  -5.050  0.1153E+01  0.7191E+01
  -5.040  0.1234E+01  0.7203E+01
  -5.030  0.3072E+01  0.7234E+01
  -5.020  0.2271E+01  0.7257E+01
  -5.010  0.1151E+00  0.7258E+01
  -5.000  0.8817E+00  0.7267E+01
  -4.990  0.2319E+01  0.7290E+01
  -4.980  0.1135E+01  0.7301E+01
  -4.970  0.3415E+00  0.7305E+01
  -4.960  0.1507E+01  0.7320E+01
  -4.950  0.1801E+01  0.7338E+01
  -4.940  0.1276E+01  0.7351E+01
  -4.930  0.2309E+01  0.7374E+01
  -4.920  0.3320E+01  0.7407E+01
  -4.910  0.2512E+01  0.7432E+01
  -4.900  0.1519E+01  0.7447E+01
  -4.890  0.1768E+01  0.7465E+01
  -4.880  0.4716E+01  0.7512E+01
  -4.870  0.9899E+01  0.7611E+01
  -4.860  0.8503E+01  0.7696E+01
  -4.850  0.4960E+01  0.7746E+01
  -4.840  0.5378E+01  0.7799E+01
  -4.830  0.4526E+01  0.7845E+01
  -4.820  0.4157E+01  0.7886E+01
  -4.810  0.4319E+01  0.7929E+01
  -4.800  0.3064E+01  0.7960E+01
  -4.790  0.3917E+01  0.7999E+01
  -4.780  0.5293E+01  0.8052E+01
  -4.770  0.5906E+01  0.8111E+01
  -4.760  0.6386E+01  0.8175E+01
  -4.750  0.3601E+01  0.8211E+01
  -4.740  0.9754E+00  0.8221E+01
  -4.730  0.2972E+00  0.8224E+01
  -4.720  0.7334E+00  0.8231E+01
  -4.710  0.2230E+01  0.8253E+01
  -4.700  0.1849E+01  0.8272E+01
  -4.690  0.2255E+01  0.8295E+01
  -4.680  0.4104E+01  0.8336E+01
  -4.670  0.2760E+01  0.8363E+01
  -4.660  0.2280E+01  0.8386E+01
  -4.650  0.3704E+01  0.8423E+01
  -4.640  0.5078E+01  0.8474E+01
  -4.630  0.1119E+02  0.8586E+01
  -4.620  0.1710E+02  0.8757E+01
  -4.610  0.9891E+01  0.8856E+01
  -4.600  0.2408E+01  0.8880E+01
  -4.590  0.1336E+01  0.8893E+01
  -4.580  0.2819E+01  0.8921E+01
  -4.570  0.4143E+01  0.8963E+01
  -4.560  0.2794E+01  0.8991E+01
  -4.550  0.9583E+00  0.9000E+01
  -4.540  0.2146E+01  0.9022E+01
  -4.530  0.3826E+01  0.9060E+01
  -4.520  0.2652E+01  0.9086E+01
  -4.510  0.2059E+01  0.9107E+01
  -4.500  0.2783E+01  0.9135E+01
  -4.490  0.1406E+01  0.9149E+01
  -4.480  0.1140E+01  0.9160E+01
  -4.470  0.2380E+01  0.9184E+01
  -4.460  0.1765E+01  0.9202E+01
  -4.450  0.2299E+01  0.9225E+01
  -4.440  0.3104E+01  0.9256E+01
  -4.430  0.2349E+01  0.9279E+01
  -4.420  0.2997E+01  0.9309E+01
  -4.410  0.3763E+01  0.9347E+01
  -4.400  0.2453E+01  0.9371E+01
  -4.390  0.1947E+01  0.9391E+01
  -4.380  0.1928E+01  0.9410E+01
  -4.370  0.1498E+01  0.9425E+01
  -4.360  0.1071E+01  0.9436E+01
  -4.350  0.1829E+01  0.9454E+01
  -4.340  0.3845E+01  0.9493E+01
  -4.330  0.5071E+01  0.9543E+01
  -4.320  0.3898E+01  0.9582E+01
  -4.310  0.3218E+01  0.9615E+01
  -4.300  0.2467E+01  0.9639E+01
  -4.290  0.9820E+00  0.9649E+01
  -4.280  0.8273E+00  0.9657E+01
  -4.270  0.2162E+01  0.9679E+01
  -4.260  0.3895E+01  0.9718E+01
  -4.250  0.3631E+01  0.9754E+01
  -4.240  0.3290E+01  0.9787E+01
  -4.230  0.2069E+01  0.9808E+01
  -4.220  0.4687E+00  0.9812E+01
  -4.210  0.1196E+01  0.9824E+01
  -4.200  0.1526E+01  0.9840E+01
  -4.190  0.9764E+00  0.9849E+01
  -4.180  0.1133E+01  0.9861E+01
  -4.170  0.3162E+01  0.9892E+01
  -4.160  0.2608E+01  0.9918E+01
  -4.150  0.8114E+00  0.9927E+01
  -4.140  0.9568E+00  0.9936E+01
  -4.130  0.8958E+00  0.9945E+01
  -4.120  0.1048E+01  0.9956E+01
  -4.110  0.4184E+00  0.9960E+01
  -4.100  0.6826E+00  0.9967E+01
  -4.090  0.1160E+01  0.9978E+01
  -4.080  0.6812E+00  0.9985E+01
  -4.070  0.1514E+01  0.1000E+02
  -4.060  0.2468E+01  0.1002E+02
  -4.050  0.2655E+01  0.1005E+02
  -4.040  0.3224E+01  0.1008E+02
  -4.030  0.4490E+01  0.1013E+02
  -4.020  0.3585E+01  0.1016E+02
  -4.010  0.1133E+01  0.1018E+02
  -4.000  0.4561E+00  0.1018E+02
  -3.990  0.7512E+00  0.1019E+02
  -3.980  0.1745E+01  0.1021E+02
  -3.970  0.2016E+01  0.1023E+02
  -3.960  0.2676E+01  0.1025E+02
  -3.950  0.2886E+01  0.1028E+02
  -3.940  0.1137E+01  0.1029E+02
  -3.930  0.1419E+01  0.1031E+02
  -3.920  0.4252E+01  0.1035E+02
  -3.910  0.3187E+01  0.1038E+02
  -3.900  0.8336E+00  0.1039E+02
  -3.890  0.2993E+01  0.1042E+02
  -3.880  0.4922E+01  0.1047E+02
  -3.870  0.3015E+01  0.1050E+02
  -3.860  0.1860E+01  0.1052E+02
  -3.850  0.1779E+01  0.1053E+02
  -3.840  0.1847E+01  0.1055E+02
  -3.830  0.3148E+01  0.1058E+02
  -3.820  0.1624E+01  0.1060E+02
  -3.810  0.7426E+00  0.1061E+02
  -3.800  0.1118E+01  0.1062E+02
  -3.790  0.1247E+01  0.1063E+02
  -3.780  0.2290E+01  0.1066E+02
  -3.770  0.4844E+01  0.1070E+02
  -3.760  0.7355E+01  0.1078E+02
  -3.750  0.6531E+01  0.1084E+02
  -3.740  0.6691E+01  0.1091E+02
  -3.730  0.6928E+01  0.1098E+02
  -3.720  0.4149E+01  0.1102E+02
  -3.710  0.2467E+01  0.1104E+02
  -3.700  0.2570E+01  0.1107E+02
  -3.690  0.3957E+01  0.1111E+02
  -3.680  0.5769E+01  0.1117E+02
  -3.670  0.6306E+01  0.1123E+02
  -3.660  0.3089E+01  0.1126E+02
  -3.650  0.3218E+00  0.1126E+02
  -3.640  0.7636E+00  0.1127E+02
  -3.630  0.4319E+00  0.1128E+02
  -3.620 -0.1205E+00  0.1128E+02
  -3.610  0.3174E+00  0.1128E+02
  -3.600  0.1764E+01  0.1130E+02
  -3.590  0.2242E+01  0.1132E+02
  -3.580  0.3481E+00  0.1132E+02
  -3.570 -0.5675E-01  0.1132E+02
  -3.560  0.9860E+00  0.1133E+02
  -3.550  0.1685E+01  0.1135E+02
  -3.540  0.1313E+01  0.1136E+02
  -3.530  0.3340E+00  0.1136E+02
  -3.520 -0.1692E+00  0.1136E+02
  -3.510 -0.3112E-01  0.1136E+02
  -3.500  0.4114E+00  0.1137E+02
  -3.490  0.1908E+01  0.1139E+02
  -3.480  0.2769E+01  0.1141E+02
  -3.470  0.1488E+01  0.1143E+02
  -3.460  0.2505E+00  0.1143E+02
  -3.450 -0.1815E+00  0.1143E+02
  -3.440  0.1201E+00  0.1143E+02
  -3.430  0.8771E+00  0.1144E+02
  -3.420  0.1133E+01  0.1145E+02
  -3.410  0.3203E+00  0.1145E+02
  -3.400  0.6592E+00  0.1146E+02
  -3.390  0.1152E+01  0.1147E+02
  -3.380  0.4593E+00  0.1148E+02
  -3.370  0.1123E+01  0.1149E+02
  -3.360  0.2312E+01  0.1151E+02
  -3.350  0.9385E+00  0.1152E+02
  -3.340 -0.2183E+00  0.1152E+02
  -3.330  0.2638E+00  0.1152E+02
  -3.320  0.1278E+01  0.1153E+02
  -3.310  0.1643E+01  0.1155E+02
  -3.300  0.1104E+01  0.1156E+02
  -3.290  0.1467E+00  0.1156E+02
  -3.280  0.1459E-01  0.1156E+02
  -3.270  0.1074E+01  0.1157E+02
  -3.260  0.2490E+01  0.1160E+02
  -3.250  0.2258E+01  0.1162E+02
  -3.240  0.8468E+00  0.1163E+02
  -3.230 -0.1367E+00  0.1163E+02
  -3.220 -0.1325E+00  0.1163E+02
  -3.210  0.1788E+00  0.1163E+02
  -3.200  0.1286E+01  0.1164E+02
  -3.190  0.3063E+01  0.1167E+02
  -3.180  0.2357E+01  0.1170E+02
  -3.170  0.1853E+00  0.1170E+02
  -3.160  0.7289E+00  0.1170E+02
  -3.150  0.2298E+01  0.1173E+02
  -3.140  0.1501E+01  0.1174E+02
  -3.130  0.8454E+00  0.1175E+02
  -3.120  0.1429E+01  0.1177E+02
  -3.110  0.1759E+01  0.1178E+02
  -3.100  0.2332E+01  0.1181E+02
  -3.090  0.3259E+01  0.1184E+02
  -3.080  0.4121E+01  0.1188E+02
  -3.070  0.4212E+01  0.1192E+02
  -3.060  0.4572E+01  0.1197E+02
  -3.050  0.3246E+01  0.1200E+02
  -3.040  0.5444E+00  0.1201E+02
  -3.030 -0.4439E+00  0.1200E+02
  -3.020 -0.1331E+00  0.1200E+02
  -3.010 -0.9190E-02  0.1200E+02
  -3.000 -0.1875E-03  0.1200E+02
  -2.990 -0.1204E-05  0.1200E+02
  -2.980 -0.2503E-08  0.1200E+02
  -2.970 -0.1709E-11  0.1200E+02
  -2.960 -0.3869E-15  0.1200E+02
  -2.950 -0.2920E-19  0.1200E+02
  -2.940 -0.7377E-24  0.1200E+02
  -2.930 -0.6255E-29  0.1200E+02
  -2.920 -0.1784E-34  0.1200E+02
  -2.910 -0.1714E-40  0.1200E+02
  -2.900 -0.5554E-47  0.1200E+02
  -2.890 -0.6075E-54  0.1200E+02
  -2.880 -0.2245E-61  0.1200E+02
  -2.870 -0.2804E-69  0.1200E+02
  -2.860 -0.1191E-77  0.1200E+02
  -2.850 -0.6604E-80  0.1200E+02
  -2.840 -0.6609E-80  0.1200E+02
  -2.830 -0.6614E-80  0.1200E+02
  -2.820 -0.6619E-80  0.1200E+02
  -2.810 -0.6625E-80  0.1200E+02
  -2.800 -0.6630E-80  0.1200E+02
  -2.790 -0.6635E-80  0.1200E+02
  -2.780 -0.6640E-80  0.1200E+02
  -2.770 -0.6645E-80  0.1200E+02
  -2.760 -0.6650E-80  0.1200E+02
  -2.750 -0.6655E-80  0.1200E+02
  -2.740 -0.6660E-80  0.1200E+02
  -2.730 -0.6665E-80  0.1200E+02
  -2.720 -0.6664E-80  0.1200E+02
  -2.710  0.2662E-74  0.1200E+02
  -2.700  0.4060E-66  0.1200E+02
  -2.690  0.2099E-58  0.1200E+02
  -2.680  0.3677E-51  0.1200E+02
  -2.670  0.2182E-44  0.1200E+02
  -2.660  0.4388E-38  0.1200E+02
  -2.650  0.2987E-32  0.1200E+02
  -2.640  0.6884E-27  0.1200E+02
  -2.630  0.5367E-22  0.1200E+02
  -2.620  0.1415E-17  0.1200E+02
  -2.610  0.1261E-13  0.1200E+02
  -2.600  0.3795E-10  0.1200E+02
  -2.590  0.3857E-07  0.1200E+02
  -2.580  0.1323E-04  0.1200E+02
  -2.570  0.1534E-02  0.1200E+02
  -2.560  0.6011E-01  0.1200E+02
  -2.550  0.7967E+00  0.1201E+02
  -2.540  0.3570E+01  0.1204E+02
  -2.530  0.5504E+01  0.1210E+02
  -2.520  0.3696E+01  0.1214E+02
  -2.510  0.2295E+01  0.1216E+02
  -2.500  0.1630E+01  0.1218E+02
  -2.490  0.2011E+01  0.1220E+02
  -2.480  0.1696E+01  0.1221E+02
  -2.470  0.1089E+01  0.1222E+02
  -2.460  0.1196E+01  0.1224E+02
  -2.450  0.2144E+01  0.1226E+02
  -2.440  0.1072E+01  0.1227E+02
  -2.430  0.1376E+00  0.1227E+02
  -2.420  0.1540E+01  0.1228E+02
  -2.410  0.2258E+01  0.1231E+02
  -2.400  0.4625E+00  0.1231E+02
  -2.390  0.3993E-01  0.1231E+02
  -2.380  0.1302E+01  0.1233E+02
  -2.370  0.2014E+01  0.1235E+02
  -2.360  0.9360E+00  0.1235E+02
  -2.350  0.6595E-02  0.1235E+02
  -2.340  0.6608E+00  0.1236E+02
  -2.330  0.1540E+01  0.1238E+02
  -2.320  0.1426E+01  0.1239E+02
  -2.310  0.7045E+00  0.1240E+02
  -2.300  0.8962E-01  0.1240E+02
  -2.290  0.7926E+00  0.1241E+02
  -2.280  0.1384E+01  0.1242E+02
  -2.270  0.1189E+01  0.1243E+02
  -2.260  0.8593E+00  0.1244E+02
  -2.250  0.1129E+00  0.1244E+02
  -2.240  0.5527E+00  0.1245E+02
  -2.230  0.1319E+01  0.1246E+02
  -2.220  0.1134E+01  0.1247E+02
  -2.210  0.1051E+01  0.1248E+02
  -2.200  0.3082E+00  0.1249E+02
  -2.190  0.1380E+00  0.1249E+02
  -2.180  0.1036E+01  0.1250E+02
  -2.170  0.1307E+01  0.1251E+02
  -2.160  0.1117E+01  0.1252E+02
  -2.150  0.7521E+00  0.1253E+02
  -2.140 -0.7664E-02  0.1253E+02
  -2.130  0.3510E+00  0.1253E+02
  -2.120  0.1258E+01  0.1255E+02
  -2.110  0.1323E+01  0.1256E+02
  -2.100  0.1115E+01  0.1257E+02
  -2.090  0.3930E+00  0.1257E+02
  -2.080 -0.9227E-01  0.1257E+02
  -2.070  0.4501E+00  0.1258E+02
  -2.060  0.1358E+01  0.1259E+02
  -2.050  0.1466E+01  0.1261E+02
  -2.040  0.1040E+01  0.1262E+02
  -2.030  0.1954E+00  0.1262E+02
  -2.020  0.3339E+00  0.1262E+02
  -2.010  0.1964E+01  0.1264E+02
  -2.000  0.3999E+01  0.1268E+02
  -1.990  0.3813E+01  0.1272E+02
  -1.980  0.1190E+01  0.1273E+02
  -1.970  0.3478E+00  0.1273E+02
  -1.960  0.1900E+01  0.1275E+02
  -1.950  0.1963E+01  0.1277E+02
  -1.940  0.8860E+00  0.1278E+02
  -1.930  0.1907E+01  0.1280E+02
  -1.920  0.1537E+01  0.1282E+02
  -1.910  0.5343E+00  0.1282E+02
  -1.900  0.1828E+01  0.1284E+02
  -1.890  0.1941E+01  0.1286E+02
  -1.880  0.3164E+00  0.1286E+02
  -1.870  0.1103E+01  0.1287E+02
  -1.860  0.2344E+01  0.1290E+02
  -1.850  0.8245E+00  0.1291E+02
  -1.840 -0.1926E+00  0.1290E+02
  -1.830  0.7374E+00  0.1291E+02
  -1.820  0.2379E+01  0.1293E+02
  -1.810  0.2078E+01  0.1296E+02
  -1.800  0.1216E+01  0.1297E+02
  -1.790  0.1228E+01  0.1298E+02
  -1.780  0.9951E+00  0.1299E+02
  -1.770  0.1374E+00  0.1299E+02
  -1.760 -0.1298E+00  0.1299E+02
  -1.750  0.3345E+00  0.1299E+02
  -1.740  0.1951E+01  0.1301E+02
  -1.730  0.3396E+01  0.1305E+02
  -1.720  0.1570E+01  0.1306E+02
  -1.710  0.4943E+00  0.1307E+02
  -1.700  0.9714E+00  0.1308E+02
  -1.690  0.2624E+00  0.1308E+02
  -1.680  0.3468E+00  0.1308E+02
  -1.670  0.1166E+01  0.1309E+02
  -1.660  0.6963E+00  0.1310E+02
  -1.650  0.3958E+00  0.1311E+02
  -1.640  0.1714E+01  0.1312E+02
  -1.630  0.2641E+01  0.1315E+02
  -1.620  0.1872E+01  0.1317E+02
  -1.610  0.8347E+00  0.1318E+02
  -1.600  0.9665E+00  0.1319E+02
  -1.590  0.3137E+00  0.1319E+02
  -1.580 -0.1529E+00  0.1319E+02
  -1.570  0.4857E-02  0.1319E+02
  -1.560  0.5788E+00  0.1319E+02
  -1.550  0.2205E+01  0.1322E+02
  -1.540  0.3297E+01  0.1325E+02
  -1.530  0.2512E+01  0.1327E+02
  -1.520  0.5790E+00  0.1328E+02
  -1.510 -0.3197E+00  0.1328E+02
  -1.500 -0.1076E+00  0.1327E+02
  -1.490  0.8317E-01  0.1328E+02
  -1.480  0.9533E+00  0.1329E+02
  -1.470  0.3527E+01  0.1332E+02
  -1.460  0.4823E+01  0.1337E+02
  -1.450  0.3061E+01  0.1340E+02
  -1.440  0.2290E+01  0.1342E+02
  -1.430  0.1842E+01  0.1344E+02
  -1.420  0.1395E+01  0.1345E+02
  -1.410  0.2350E+01  0.1348E+02
  -1.400  0.3717E+01  0.1352E+02
  -1.390  0.2493E+01  0.1354E+02
  -1.380  0.5532E+00  0.1355E+02
  -1.370  0.1293E+01  0.1356E+02
  -1.360  0.3450E+01  0.1359E+02
  -1.350  0.3345E+01  0.1363E+02
  -1.340  0.1782E+01  0.1364E+02
  -1.330  0.2062E+01  0.1367E+02
  -1.320  0.1315E+01  0.1368E+02
  -1.310  0.1334E+01  0.1369E+02
  -1.300  0.3523E+01  0.1373E+02
  -1.290  0.4628E+01  0.1377E+02
  -1.280  0.3113E+01  0.1380E+02
  -1.270  0.2678E+01  0.1383E+02
  -1.260  0.4435E+01  0.1388E+02
  -1.250  0.6155E+01  0.1394E+02
  -1.240  0.5431E+01  0.1399E+02
  -1.230  0.1588E+01  0.1401E+02
  -1.220  0.7823E+00  0.1401E+02
  -1.210  0.4226E+01  0.1406E+02
  -1.200  0.7027E+01  0.1413E+02
  -1.190  0.5587E+01  0.1418E+02
  -1.180  0.2897E+01  0.1421E+02
  -1.170  0.2264E+01  0.1423E+02
  -1.160  0.3631E+01  0.1427E+02
  -1.150  0.3898E+01  0.1431E+02
  -1.140  0.2420E+01  0.1433E+02
  -1.130  0.3824E+00  0.1434E+02
  -1.120  0.1591E+01  0.1435E+02
  -1.110  0.4369E+01  0.1440E+02
  -1.100  0.4697E+01  0.1444E+02
  -1.090  0.2308E+01  0.1447E+02
  -1.080  0.2025E+01  0.1449E+02
  -1.070  0.2966E+01  0.1452E+02
  -1.060  0.3757E+01  0.1456E+02
  -1.050  0.4558E+01  0.1460E+02
  -1.040  0.4728E+01  0.1465E+02
  -1.030  0.2060E+01  0.1467E+02
  -1.020  0.8330E+00  0.1468E+02
  -1.010  0.2154E+01  0.1470E+02
  -1.000  0.3329E+01  0.1473E+02
  -0.990  0.3472E+01  0.1477E+02
  -0.980  0.2311E+01  0.1479E+02
  -0.970  0.2205E+01  0.1481E+02
  -0.960  0.2279E+01  0.1483E+02
  -0.950  0.2104E+01  0.1486E+02
  -0.940  0.1897E+01  0.1487E+02
  -0.930  0.7957E+00  0.1488E+02
  -0.920  0.2266E+00  0.1488E+02
  -0.910  0.1542E+01  0.1490E+02
  -0.900  0.2612E+01  0.1493E+02
  -0.890  0.1806E+01  0.1494E+02
  -0.880  0.4798E+00  0.1495E+02
  -0.870  0.5352E+00  0.1495E+02
  -0.860  0.1904E+01  0.1497E+02
  -0.850  0.2770E+01  0.1500E+02
  -0.840  0.2281E+01  0.1502E+02
  -0.830  0.2561E+01  0.1505E+02
  -0.820  0.5543E+01  0.1511E+02
  -0.810  0.7832E+01  0.1518E+02
  -0.800  0.5231E+01  0.1524E+02
  -0.790  0.1123E+01  0.1525E+02
  -0.780  0.6164E+00  0.1525E+02
  -0.770  0.7109E+00  0.1526E+02
  -0.760  0.1037E+01  0.1527E+02
  -0.750  0.7598E+00  0.1528E+02
  -0.740  0.6604E+00  0.1528E+02
  -0.730  0.1131E+01  0.1530E+02
  -0.720  0.6875E+00  0.1530E+02
  -0.710  0.1678E+01  0.1532E+02
  -0.700  0.2161E+01  0.1534E+02
  -0.690  0.4269E+00  0.1535E+02
  -0.680  0.5356E+00  0.1535E+02
  -0.670  0.1115E+01  0.1536E+02
  -0.660  0.3417E+00  0.1537E+02
  -0.650  0.5261E+00  0.1537E+02
  -0.640  0.1179E+01  0.1538E+02
  -0.630  0.4598E+00  0.1539E+02
  -0.620  0.3439E+00  0.1539E+02
  -0.610  0.1158E+01  0.1540E+02
  -0.600  0.8448E+00  0.1541E+02
  -0.590  0.1052E+01  0.1542E+02
  -0.580  0.2156E+01  0.1544E+02
  -0.570  0.1215E+01  0.1545E+02
  -0.560  0.9128E+00  0.1546E+02
  -0.550  0.3460E+01  0.1550E+02
  -0.540  0.4146E+01  0.1554E+02
  -0.530  0.2880E+01  0.1557E+02
  -0.520  0.4440E+01  0.1561E+02
  -0.510  0.6515E+01  0.1568E+02
  -0.500  0.3958E+01  0.1572E+02
  -0.490  0.1640E+01  0.1573E+02
  -0.480  0.4264E+01  0.1578E+02
  -0.470  0.6405E+01  0.1584E+02
  -0.460  0.5532E+01  0.1590E+02
  -0.450  0.5279E+01  0.1595E+02
  -0.440  0.3033E+01  0.1598E+02
  -0.430  0.2752E+01  0.1601E+02
  -0.420  0.3585E+01  0.1604E+02
  -0.410  0.1751E+01  0.1606E+02
  -0.400  0.1374E+01  0.1607E+02
  -0.390  0.1710E+01  0.1609E+02
  -0.380  0.2402E+01  0.1612E+02
  -0.370  0.4491E+01  0.1616E+02
  -0.360  0.4553E+01  0.1621E+02
  -0.350  0.2196E+01  0.1623E+02
  -0.340  0.1117E+01  0.1624E+02
  -0.330  0.7075E+00  0.1625E+02
  -0.320  0.7416E+00  0.1625E+02
  -0.310  0.1605E+01  0.1627E+02
  -0.300  0.2933E+01  0.1630E+02
  -0.290  0.4763E+01  0.1635E+02
  -0.280  0.3890E+01  0.1639E+02
  -0.270  0.2766E+01  0.1641E+02
  -0.260  0.1798E+01  0.1643E+02
  -0.250  0.1320E+01  0.1644E+02
  -0.240  0.2292E+01  0.1647E+02
  -0.230  0.3874E+01  0.1651E+02
  -0.220  0.3124E+01  0.1654E+02
  -0.210  0.2606E+01  0.1656E+02
  -0.200  0.5437E+01  0.1662E+02
  -0.190  0.7452E+01  0.1669E+02
  -0.180  0.4068E+01  0.1673E+02
  -0.170  0.1639E+00  0.1673E+02
  -0.160  0.4792E+00  0.1674E+02
  -0.150  0.1811E+01  0.1676E+02
  -0.140  0.1311E+01  0.1677E+02
  -0.130  0.1027E+00  0.1677E+02
  -0.120 -0.1558E+00  0.1677E+02
  -0.110  0.3139E+00  0.1677E+02
  -0.100  0.1735E+01  0.1679E+02
  -0.090  0.2744E+01  0.1682E+02
  -0.080  0.1626E+01  0.1683E+02
  -0.070  0.3867E+00  0.1684E+02
  -0.060 -0.1814E+00  0.1684E+02
  -0.050 -0.8579E-01  0.1684E+02
  -0.040 -0.6755E-02  0.1684E+02
  -0.030  0.3737E-01  0.1684E+02
  -0.020  0.4667E+00  0.1684E+02
  -0.010  0.1879E+01  0.1686E+02
  -0.000  0.2459E+01  0.1688E+02
   0.010  0.1841E+01  0.1690E+02
   0.020  0.1874E+01  0.1692E+02
   0.030  0.5753E+00  0.1693E+02
   0.040 -0.2403E+00  0.1692E+02
   0.050 -0.8173E-01  0.1692E+02
   0.060  0.1761E+00  0.1693E+02
   0.070  0.8729E+00  0.1693E+02
   0.080  0.1130E+01  0.1695E+02
   0.090  0.1775E+00  0.1695E+02
   0.100 -0.1212E+00  0.1695E+02
   0.110  0.2629E+00  0.1695E+02
   0.120  0.1142E+01  0.1696E+02
   0.130  0.1731E+01  0.1698E+02
   0.140  0.2159E+01  0.1700E+02
   0.150  0.2441E+01  0.1702E+02
   0.160  0.1282E+01  0.1704E+02
   0.170 -0.5875E-01  0.1704E+02
   0.180 -0.1923E+00  0.1703E+02
   0.190 -0.3162E-01  0.1703E+02
   0.200 -0.1033E-02  0.1703E+02
   0.210  0.1883E-01  0.1703E+02
   0.220  0.3139E+00  0.1704E+02
   0.230  0.1622E+01  0.1705E+02
   0.240  0.2327E+01  0.1708E+02
   0.250  0.4902E+00  0.1708E+02
   0.260 -0.2870E+00  0.1708E+02
   0.270  0.1310E+00  0.1708E+02
   0.280  0.1215E+01  0.1709E+02
   0.290  0.2299E+01  0.1711E+02
   0.300  0.1187E+01  0.1713E+02
   0.310  0.5928E+00  0.1713E+02
   0.320  0.1035E+01  0.1714E+02
   0.330  0.2576E+00  0.1714E+02
   0.340  0.1347E+00  0.1715E+02
   0.350  0.1002E+01  0.1716E+02
   0.360  0.9707E+00  0.1717E+02
   0.370  0.2520E-01  0.1717E+02
   0.380  0.1906E-01  0.1717E+02
   0.390  0.7568E+00  0.1717E+02
   0.400  0.1184E+01  0.1719E+02
   0.410  0.2965E+00  0.1719E+02
   0.420  0.3978E-01  0.1719E+02
   0.430  0.9042E+00  0.1720E+02
   0.440  0.1617E+01  0.1721E+02
   0.450  0.1403E+01  0.1723E+02
   0.460  0.9884E+00  0.1724E+02
   0.470  0.1756E+01  0.1726E+02
   0.480  0.1986E+01  0.1728E+02
   0.490  0.2052E+00  0.1728E+02
   0.500 -0.2618E+00  0.1728E+02
   0.510 -0.5082E-01  0.1727E+02
   0.520 -0.1984E-02  0.1727E+02
   0.530  0.1816E-01  0.1727E+02
   0.540  0.2418E+00  0.1728E+02
   0.550  0.9779E+00  0.1729E+02
   0.560  0.1043E+01  0.1730E+02
   0.570  0.1085E+00  0.1730E+02
   0.580  0.3432E+00  0.1730E+02
   0.590  0.1965E+01  0.1732E+02
   0.600  0.2529E+01  0.1735E+02
   0.610  0.1392E+01  0.1736E+02
   0.620  0.9982E+00  0.1737E+02
   0.630  0.1068E+01  0.1738E+02
   0.640  0.5197E+00  0.1739E+02
   0.650 -0.1350E+00  0.1739E+02
   0.660 -0.7477E-01  0.1738E+02
   0.670 -0.5425E-02  0.1738E+02
   0.680  0.3372E-01  0.1738E+02
   0.690  0.3597E+00  0.1739E+02
   0.700  0.1219E+01  0.1740E+02
   0.710  0.1535E+01  0.1742E+02
   0.720  0.1167E+01  0.1743E+02
   0.730  0.3003E+00  0.1743E+02
   0.740 -0.1159E+00  0.1743E+02
   0.750  0.4645E+00  0.1743E+02
   0.760  0.2074E+01  0.1746E+02
   0.770  0.3138E+01  0.1749E+02
   0.780  0.1314E+01  0.1750E+02
   0.790 -0.3045E+00  0.1750E+02
   0.800 -0.1792E+00  0.1749E+02
   0.810  0.9590E-02  0.1749E+02
   0.820  0.3314E+00  0.1750E+02
   0.830  0.1413E+01  0.1751E+02
   0.840  0.2071E+01  0.1753E+02
   0.850  0.8577E+00  0.1754E+02
   0.860 -0.1673E+00  0.1754E+02
   0.870 -0.5954E-01  0.1754E+02
   0.880  0.4934E+00  0.1754E+02
   0.890  0.1202E+01  0.1756E+02
   0.900  0.6470E+00  0.1756E+02
   0.910  0.1262E+00  0.1756E+02
   0.920  0.1161E+01  0.1758E+02
   0.930  0.2478E+01  0.1760E+02
   0.940  0.2375E+01  0.1762E+02
   0.950  0.8417E+00  0.1763E+02
   0.960  0.6583E+00  0.1764E+02
   0.970  0.1244E+01  0.1765E+02
   0.980  0.1119E+01  0.1766E+02
   0.990  0.8859E+00  0.1767E+02
   1.000  0.7269E-01  0.1767E+02
   1.010  0.2684E+00  0.1767E+02
   1.020  0.1129E+01  0.1769E+02
   1.030  0.8137E+00  0.1769E+02
   1.040  0.2331E+00  0.1770E+02
   1.050  0.1231E+01  0.1771E+02
   1.060  0.2076E+01  0.1773E+02
   1.070  0.1717E+01  0.1775E+02
   1.080  0.2094E+01  0.1777E+02
   1.090  0.1963E+01  0.1779E+02
   1.100  0.1672E+01  0.1780E+02
   1.110  0.5015E+01  0.1785E+02
   1.120  0.1633E+02  0.1802E+02
   1.130  0.2633E+02  0.1828E+02
   1.140  0.1269E+02  0.1841E+02
   1.150 -0.2527E+00  0.1841E+02
   1.160  0.5710E+00  0.1841E+02
   1.170  0.3467E+01  0.1845E+02
   1.180  0.7009E+01  0.1852E+02
   1.190  0.7685E+01  0.1859E+02
   1.200  0.5899E+01  0.1865E+02
   1.210  0.4458E+01  0.1870E+02
   1.220  0.4347E+01  0.1874E+02
   1.230  0.5258E+01  0.1879E+02
   1.240  0.4405E+01  0.1884E+02
   1.250  0.2470E+01  0.1886E+02
   1.260  0.1423E+01  0.1888E+02
   1.270  0.2085E+01  0.1890E+02
   1.280  0.2908E+01  0.1893E+02
   1.290  0.2200E+01  0.1895E+02
   1.300  0.1682E+01  0.1896E+02
   1.310  0.1911E+01  0.1898E+02
   1.320  0.3111E+01  0.1901E+02
   1.330  0.3326E+01  0.1905E+02
   1.340  0.1742E+01  0.1907E+02
   1.350  0.1678E+01  0.1908E+02
   1.360  0.2757E+01  0.1911E+02
   1.370  0.3105E+01  0.1914E+02
   1.380  0.4280E+01  0.1918E+02
   1.390  0.4176E+01  0.1922E+02
   1.400  0.3745E+01  0.1926E+02
   1.410  0.2428E+01  0.1929E+02
   1.420  0.1472E+01  0.1930E+02
   1.430  0.2616E+01  0.1933E+02
   1.440  0.3350E+01  0.1936E+02
   1.450  0.1878E+01  0.1938E+02
   1.460  0.1814E+01  0.1940E+02
   1.470  0.3855E+01  0.1944E+02
   1.480  0.5741E+01  0.1949E+02
   1.490  0.3846E+01  0.1953E+02
   1.500  0.3077E+01  0.1956E+02
   1.510  0.5053E+01  0.1961E+02
   1.520  0.4133E+01  0.1966E+02
   1.530  0.5604E+01  0.1971E+02
   1.540  0.6633E+01  0.1978E+02
   1.550  0.4333E+01  0.1982E+02
   1.560  0.3223E+01  0.1985E+02
   1.570  0.2254E+01  0.1988E+02
   1.580  0.2991E+01  0.1991E+02
   1.590  0.2299E+01  0.1993E+02
   1.600  0.2514E+01  0.1995E+02
   1.610  0.6344E+01  0.2002E+02
   1.620  0.9474E+01  0.2011E+02
   1.630  0.8092E+01  0.2019E+02
   1.640  0.6842E+01  0.2026E+02
   1.650  0.7904E+01  0.2034E+02
   1.660  0.7271E+01  0.2041E+02
   1.670  0.6970E+01  0.2048E+02
   1.680  0.7984E+01  0.2056E+02
   1.690  0.7458E+01  0.2064E+02
   1.700  0.8320E+01  0.2072E+02
   1.710  0.7465E+01  0.2079E+02
   1.720  0.3868E+01  0.2083E+02
   1.730  0.3132E+01  0.2086E+02
   1.740  0.2866E+01  0.2089E+02
   1.750  0.3434E+01  0.2093E+02
   1.760  0.4524E+01  0.2097E+02
   1.770  0.2761E+01  0.2100E+02
   1.780  0.2959E+01  0.2103E+02
   1.790  0.5191E+01  0.2108E+02
   1.800  0.4872E+01  0.2113E+02
   1.810  0.2863E+01  0.2116E+02
   1.820  0.4029E+01  0.2120E+02
   1.830  0.5858E+01  0.2126E+02
   1.840  0.3282E+01  0.2129E+02
   1.850  0.2835E+01  0.2132E+02
   1.860  0.3802E+01  0.2136E+02
   1.870  0.4803E+01  0.2141E+02
   1.880  0.5690E+01  0.2146E+02
   1.890  0.4989E+01  0.2151E+02
   1.900  0.6288E+01  0.2158E+02
   1.910  0.9662E+01  0.2167E+02
   1.920  0.7086E+01  0.2174E+02
   1.930  0.3216E+01  0.2177E+02
   1.940  0.2696E+01  0.2180E+02
   1.950  0.1756E+01  0.2182E+02
   1.960  0.1112E+01  0.2183E+02
   1.970  0.1394E+01  0.2184E+02
   1.980  0.2321E+01  0.2187E+02
   1.990  0.2678E+01  0.2189E+02
   2.000  0.2110E+01  0.2192E+02
   2.010  0.1121E+01  0.2193E+02
   2.020  0.1271E+01  0.2194E+02
   2.030  0.1495E+01  0.2195E+02
   2.040  0.1616E+01  0.2197E+02
   2.050  0.1016E+01  0.2198E+02
   2.060  0.6731E+00  0.2199E+02
   2.070  0.2136E+01  0.2201E+02
   2.080  0.3501E+01  0.2204E+02
   2.090  0.3107E+01  0.2207E+02
   2.100  0.2853E+01  0.2210E+02
   2.110  0.2809E+01  0.2213E+02
   2.120  0.3093E+01  0.2216E+02
   2.130  0.4269E+01  0.2221E+02
   2.140  0.2225E+01  0.2223E+02
   2.150  0.4063E+00  0.2223E+02
   2.160  0.1383E+01  0.2225E+02
   2.170  0.3363E+01  0.2228E+02
   2.180  0.7984E+01  0.2236E+02
   2.190  0.1215E+02  0.2248E+02
   2.200  0.1067E+02  0.2259E+02
   2.210  0.8484E+01  0.2267E+02
   2.220  0.1317E+02  0.2280E+02
   2.230  0.1348E+02  0.2294E+02
   2.240  0.8528E+01  0.2302E+02
   2.250  0.9233E+01  0.2312E+02
   2.260  0.1270E+02  0.2324E+02
   2.270  0.9399E+01  0.2334E+02
   2.280  0.5391E+01  0.2339E+02
   2.290  0.4325E+01  0.2343E+02
   2.300  0.3869E+01  0.2347E+02
   2.310  0.5493E+01  0.2353E+02
   2.320  0.9382E+01  0.2362E+02
   2.330  0.9735E+01  0.2372E+02
   2.340  0.5905E+01  0.2378E+02
   2.350  0.5500E+01  0.2383E+02
   2.360  0.6444E+01  0.2390E+02
   2.370  0.4049E+01  0.2394E+02
   2.380  0.2714E+01  0.2396E+02
   2.390  0.4481E+01  0.2401E+02
   2.400  0.5792E+01  0.2407E+02
   2.410  0.6381E+01  0.2413E+02
   2.420  0.6112E+01  0.2419E+02
   2.430  0.3864E+01  0.2423E+02
   2.440  0.2484E+01  0.2426E+02
   2.450  0.3290E+01  0.2429E+02
   2.460  0.4642E+01  0.2434E+02
   2.470  0.4719E+01  0.2438E+02
   2.480  0.3342E+01  0.2442E+02
   2.490  0.1722E+01  0.2443E+02
   2.500  0.3934E+01  0.2447E+02
   2.510  0.6731E+01  0.2454E+02
   2.520  0.5419E+01  0.2459E+02
   2.530  0.5130E+01  0.2465E+02
   2.540  0.4432E+01  0.2469E+02
   2.550  0.2989E+01  0.2472E+02
   2.560  0.3561E+01  0.2476E+02
   2.570  0.2829E+01  0.2478E+02
   2.580  0.3424E+01  0.2482E+02
   2.590  0.5824E+01  0.2488E+02
   2.600  0.7133E+01  0.2495E+02
   2.610  0.5504E+01  0.2500E+02
   2.620  0.4693E+01  0.2505E+02
   2.630  0.5595E+01  0.2511E+02
   2.640  0.3765E+01  0.2514E+02
   2.650  0.2178E+01  0.2516E+02
   2.660  0.1350E+01  0.2518E+02
   2.670  0.9531E+00  0.2519E+02
   2.680  0.8789E+00  0.2520E+02
   2.690  0.1773E+01  0.2521E+02
   2.700  0.2259E+01  0.2524E+02
   2.710  0.2520E+01  0.2526E+02
   2.720  0.5035E+01  0.2531E+02
   2.730  0.5607E+01  0.2537E+02
   2.740  0.2136E+01  0.2539E+02
   2.750  0.2141E+01  0.2541E+02
   2.760  0.3160E+01  0.2544E+02
   2.770  0.3082E+01  0.2547E+02
   2.780  0.4404E+01  0.2552E+02
   2.790  0.5275E+01  0.2557E+02
   2.800  0.5195E+01  0.2562E+02
   2.810  0.5724E+01  0.2568E+02
   2.820  0.3358E+01  0.2571E+02
   2.830  0.2513E+01  0.2574E+02
   2.840  0.4070E+01  0.2578E+02
   2.850  0.4074E+01  0.2582E+02
   2.860  0.4481E+01  0.2586E+02
   2.870  0.6440E+01  0.2593E+02
   2.880  0.3708E+01  0.2597E+02
   2.890 -0.1429E-01  0.2597E+02
   2.900  0.9930E+00  0.2598E+02
   2.910  0.1980E+01  0.2600E+02
   2.920  0.9343E+00  0.2600E+02
   2.930  0.9482E+00  0.2601E+02
   2.940  0.3075E+01  0.2605E+02
   2.950  0.4631E+01  0.2609E+02
   2.960  0.3138E+01  0.2612E+02
   2.970  0.2370E+01  0.2615E+02
   2.980  0.2894E+01  0.2618E+02
   2.990  0.1831E+01  0.2619E+02
   3.000  0.9874E+00  0.2620E+02
   3.010  0.1326E+01  0.2622E+02
   3.020  0.2100E+01  0.2624E+02
   3.030  0.1045E+01  0.2625E+02
   3.040  0.2105E+01  0.2627E+02
   3.050  0.6734E+01  0.2634E+02
   3.060  0.7113E+01  0.2641E+02
   3.070  0.2589E+01  0.2643E+02
   3.080  0.2391E+01  0.2646E+02
   3.090  0.3307E+01  0.2649E+02
   3.100  0.1641E+01  0.2651E+02
   3.110  0.1191E+01  0.2652E+02
   3.120  0.3146E+01  0.2655E+02
   3.130  0.4186E+01  0.2659E+02
   3.140  0.2440E+01  0.2662E+02
   3.150  0.1597E+01  0.2663E+02
   3.160  0.3466E+01  0.2667E+02
   3.170  0.4260E+01  0.2671E+02
   3.180  0.3759E+01  0.2675E+02
   3.190  0.3580E+01  0.2678E+02
   3.200  0.2687E+01  0.2681E+02
   3.210  0.2766E+01  0.2684E+02
   3.220  0.5339E+01  0.2689E+02
   3.230  0.4606E+01  0.2694E+02
   3.240  0.2245E+01  0.2696E+02
   3.250  0.3319E+01  0.2699E+02
   3.260  0.5995E+01  0.2705E+02
   3.270  0.7910E+01  0.2713E+02
   3.280  0.4594E+01  0.2718E+02
   3.290  0.1440E+01  0.2719E+02
   3.300  0.1573E+01  0.2721E+02
   3.310  0.4118E+00  0.2721E+02
   3.320 -0.2676E+00  0.2721E+02
   3.330 -0.7321E-01  0.2721E+02
   3.340  0.1139E+00  0.2721E+02
   3.350  0.7137E+00  0.2722E+02
   3.360  0.1225E+01  0.2723E+02
   3.370  0.6155E+00  0.2724E+02
   3.380  0.9329E+00  0.2724E+02
   3.390  0.1592E+01  0.2726E+02
   3.400  0.1504E+01  0.2728E+02
   3.410  0.1337E+01  0.2729E+02
   3.420  0.8986E+00  0.2730E+02
   3.430  0.1853E+00  0.2730E+02
   3.440  0.6944E+00  0.2731E+02
   3.450  0.1132E+01  0.2732E+02
   3.460  0.2182E+00  0.2732E+02
   3.470 -0.1488E+00  0.2732E+02
   3.480 -0.3457E-01  0.2732E+02
   3.490 -0.1739E-02  0.2732E+02
   3.500  0.3550E-02  0.2732E+02
   3.510  0.8195E-01  0.2732E+02
   3.520  0.5882E+00  0.2733E+02
   3.530  0.1236E+01  0.2734E+02
   3.540  0.7641E+00  0.2735E+02
   3.550  0.8460E+00  0.2735E+02
   3.560  0.9694E+00  0.2736E+02
   3.570  0.6018E-01  0.2736E+02
   3.580 -0.1246E+00  0.2736E+02
   3.590  0.1045E+00  0.2736E+02
   3.600  0.7328E+00  0.2737E+02
   3.610  0.1204E+01  0.2738E+02
   3.620  0.4460E+00  0.2739E+02
   3.630  0.7322E+00  0.2740E+02
   3.640  0.2159E+01  0.2742E+02
   3.650  0.1483E+01  0.2743E+02
   3.660 -0.4848E-01  0.2743E+02
   3.670  0.1662E+00  0.2743E+02
   3.680  0.1087E+01  0.2744E+02
   3.690  0.8610E+00  0.2745E+02
   3.700 -0.3943E-01  0.2745E+02
   3.710  0.2274E-01  0.2745E+02
   3.720  0.7290E+00  0.2746E+02
   3.730  0.1208E+01  0.2747E+02
   3.740  0.5045E+00  0.2748E+02
   3.750  0.7182E+00  0.2748E+02
   3.760  0.1088E+01  0.2749E+02
   3.770  0.1771E+00  0.2750E+02
   3.780 -0.1459E+00  0.2749E+02
   3.790 -0.3109E-01  0.2749E+02
   3.800  0.2533E-02  0.2749E+02
   3.810  0.8933E-01  0.2750E+02
   3.820  0.6154E+00  0.2750E+02
   3.830  0.1218E+01  0.2751E+02
   3.840  0.4797E+00  0.2752E+02
   3.850 -0.1393E+00  0.2752E+02
   3.860  0.5084E-01  0.2752E+02
   3.870  0.7092E+00  0.2752E+02
   3.880  0.1593E+01  0.2754E+02
   3.890  0.2210E+01  0.2756E+02
   3.900  0.3049E+01  0.2759E+02
   3.910  0.1596E+01  0.2761E+02
   3.920 -0.2417E+00  0.2761E+02
   3.930 -0.2192E+00  0.2760E+02
   3.940 -0.2291E-01  0.2760E+02
   3.950  0.4038E-01  0.2760E+02
   3.960  0.3984E+00  0.2761E+02
   3.970  0.1148E+01  0.2762E+02
   3.980  0.7924E+00  0.2763E+02
   3.990 -0.7563E-01  0.2763E+02
   4.000 -0.9658E-01  0.2763E+02
   4.010  0.3639E-02  0.2763E+02
   4.020  0.2070E+00  0.2763E+02
   4.030  0.9194E+00  0.2764E+02
   4.040  0.1096E+01  0.2765E+02
   4.050  0.1328E+00  0.2765E+02
   4.060 -0.6141E-01  0.2765E+02
   4.070  0.6725E+00  0.2766E+02
   4.080  0.2037E+01  0.2768E+02
   4.090  0.1779E+01  0.2769E+02
   4.100  0.5046E+00  0.2770E+02
   4.110  0.1511E+01  0.2771E+02
   4.120  0.2974E+01  0.2774E+02
   4.130  0.3736E+01  0.2778E+02
   4.140  0.3835E+01  0.2782E+02
   4.150  0.3964E+01  0.2786E+02
   4.160  0.6434E+01  0.2792E+02
   4.170  0.5330E+01  0.2798E+02
   4.180  0.2466E+01  0.2800E+02
   4.190  0.2426E+01  0.2803E+02
   4.200  0.2157E+01  0.2805E+02
   4.210  0.1183E+01  0.2806E+02
   4.220  0.1833E+01  0.2808E+02
   4.230  0.2307E+01  0.2810E+02
   4.240  0.1395E+01  0.2811E+02
   4.250  0.1289E+01  0.2813E+02
   4.260  0.3212E+01  0.2816E+02
   4.270  0.2113E+01  0.2818E+02
   4.280  0.1518E+00  0.2818E+02
   4.290  0.8991E+00  0.2819E+02
   4.300  0.1506E+01  0.2821E+02
   4.310  0.2028E+01  0.2823E+02
   4.320  0.1717E+01  0.2824E+02
   4.330  0.2216E+00  0.2825E+02
   4.340  0.6295E+00  0.2825E+02
   4.350  0.1408E+01  0.2827E+02
   4.360  0.1801E+01  0.2828E+02
   4.370  0.2452E+01  0.2831E+02
   4.380  0.1510E+01  0.2832E+02
   4.390  0.7213E+00  0.2833E+02
   4.400 -0.1780E-01  0.2833E+02
   4.410  0.1553E-01  0.2833E+02
   4.420  0.1155E+01  0.2834E+02
   4.430  0.2988E+01  0.2837E+02
   4.440  0.2452E+01  0.2840E+02
   4.450  0.1072E+01  0.2841E+02
   4.460  0.1883E+01  0.2843E+02
   4.470  0.1536E+01  0.2844E+02
   4.480 -0.1159E-01  0.2844E+02
   4.490  0.1674E+00  0.2844E+02
   4.500  0.1832E+01  0.2846E+02
   4.510  0.3720E+01  0.2850E+02
   4.520  0.3513E+01  0.2853E+02
   4.530  0.1843E+01  0.2855E+02
   4.540  0.3457E+00  0.2856E+02
   4.550  0.1544E+01  0.2857E+02
   4.560  0.3731E+01  0.2861E+02
   4.570  0.4065E+01  0.2865E+02
   4.580  0.2772E+01  0.2868E+02
   4.590  0.9676E+00  0.2869E+02
   4.600  0.6436E+00  0.2869E+02
   4.610  0.1449E+01  0.2871E+02
   4.620  0.1595E+01  0.2872E+02
   4.630  0.1511E+01  0.2874E+02
   4.640  0.9948E+00  0.2875E+02
   4.650  0.5008E+00  0.2875E+02
   4.660  0.1868E+01  0.2877E+02
   4.670  0.3159E+01  0.2880E+02
   4.680  0.1869E+01  0.2882E+02
   4.690  0.1668E+01  0.2884E+02
   4.700  0.1990E+01  0.2886E+02
   4.710  0.7339E+00  0.2887E+02
   4.720  0.9672E+00  0.2888E+02
   4.730  0.8184E+00  0.2888E+02
   4.740  0.2143E+01  0.2891E+02
   4.750  0.5545E+01  0.2896E+02
   4.760  0.5351E+01  0.2902E+02
   4.770  0.2540E+01  0.2904E+02
   4.780  0.2506E+01  0.2907E+02
   4.790  0.5369E+01  0.2912E+02
   4.800  0.8897E+01  0.2921E+02
   4.810  0.5609E+01  0.2926E+02
   4.820  0.3599E+01  0.2930E+02
   4.830  0.4336E+01  0.2934E+02
   4.840  0.4348E+01  0.2939E+02
   4.850  0.3781E+01  0.2943E+02
   4.860  0.2918E+01  0.2945E+02
   4.870  0.1785E+01  0.2947E+02
   4.880  0.1438E+01  0.2949E+02
   4.890  0.1937E+01  0.2951E+02
   4.900  0.2515E+01  0.2953E+02
   4.910  0.2763E+01  0.2956E+02
   4.920  0.4359E+01  0.2960E+02
   4.930  0.5286E+01  0.2966E+02
   4.940  0.3520E+01  0.2969E+02
   4.950  0.2756E+01  0.2972E+02
   4.960  0.2697E+01  0.2974E+02
   4.970  0.1989E+01  0.2976E+02
   4.980  0.3009E+01  0.2979E+02
   4.990  0.3997E+01  0.2983E+02
   5.000  0.3354E+01  0.2987E+02
   5.010  0.2632E+01  0.2989E+02
   5.020  0.2327E+01  0.2992E+02
   5.030  0.3956E+01  0.2996E+02
   5.040  0.4016E+01  0.3000E+02
   5.050  0.9443E+00  0.3001E+02
   5.060 -0.2273E+00  0.3000E+02
   5.070  0.8774E+00  0.3001E+02
   5.080  0.1071E+01  0.3002E+02
   5.090  0.8610E+00  0.3003E+02
   5.100  0.2054E+01  0.3005E+02
   5.110  0.1579E+01  0.3007E+02
   5.120  0.3974E+00  0.3007E+02
   5.130  0.9888E+00  0.3008E+02
   5.140  0.8282E+00  0.3009E+02
   5.150  0.9545E+00  0.3010E+02
   5.160  0.2637E+01  0.3013E+02
   5.170  0.2845E+01  0.3016E+02
   5.180  0.2416E+01  0.3018E+02
   5.190  0.3007E+01  0.3021E+02
   5.200  0.2712E+01  0.3024E+02
   5.210  0.8775E+00  0.3025E+02
   5.220 -0.4963E-01  0.3025E+02
   5.230  0.6915E+00  0.3025E+02
   5.240  0.1127E+01  0.3026E+02
   5.250  0.2025E+00  0.3027E+02
   5.260 -0.1278E+00  0.3026E+02
   5.270  0.2548E+00  0.3027E+02
   5.280  0.1396E+01  0.3028E+02
   5.290  0.2204E+01  0.3030E+02
   5.300  0.9130E+00  0.3031E+02
   5.310  0.5203E+00  0.3032E+02
   5.320  0.2385E+01  0.3034E+02
   5.330  0.3917E+01  0.3038E+02
   5.340  0.3564E+01  0.3042E+02
   5.350  0.1171E+01  0.3043E+02
   5.360  0.6506E+00  0.3043E+02
   5.370  0.7426E+00  0.3044E+02
   5.380  0.1816E+00  0.3044E+02
   5.390  0.8897E+00  0.3045E+02
   5.400  0.1451E+01  0.3047E+02
   5.410  0.1829E+01  0.3048E+02
   5.420  0.2967E+01  0.3051E+02
   5.430  0.4902E+01  0.3056E+02
   5.440  0.6157E+01  0.3063E+02
   5.450  0.3243E+01  0.3066E+02
   5.460  0.2659E+01  0.3068E+02
   5.470  0.3762E+01  0.3072E+02
   5.480  0.2820E+01  0.3075E+02
   5.490  0.2713E+01  0.3078E+02
   5.500  0.3233E+01  0.3081E+02
   5.510  0.2598E+01  0.3084E+02
   5.520  0.2911E+01  0.3086E+02
   5.530  0.2612E+01  0.3089E+02
   5.540  0.1497E+01  0.3091E+02
   5.550  0.1190E+01  0.3092E+02
   5.560  0.1983E+01  0.3094E+02
   5.570  0.2672E+01  0.3096E+02
   5.580  0.3316E+01  0.3100E+02
   5.590  0.2809E+01  0.3103E+02
   5.600  0.1878E+01  0.3104E+02
   5.610  0.2278E+01  0.3107E+02
   5.620  0.3000E+01  0.3110E+02
   5.630  0.2691E+01  0.3112E+02
   5.640  0.2502E+01  0.3115E+02
   5.650  0.2082E+01  0.3117E+02
   5.660  0.1996E+01  0.3119E+02
   5.670  0.1884E+01  0.3121E+02
   5.680  0.8841E+00  0.3122E+02
   5.690  0.1632E+01  0.3123E+02
   5.700  0.2127E+01  0.3125E+02
   5.710  0.1116E+01  0.3127E+02
   5.720  0.1594E+01  0.3128E+02
   5.730  0.1750E+01  0.3130E+02
   5.740  0.2247E+01  0.3132E+02
   5.750  0.4306E+01  0.3137E+02
   5.760  0.4232E+01  0.3141E+02
   5.770  0.3613E+01  0.3144E+02
   5.780  0.3462E+01  0.3148E+02
   5.790  0.2410E+01  0.3150E+02
   5.800  0.1460E+01  0.3152E+02
   5.810  0.1555E+01  0.3153E+02
   5.820  0.1328E+01  0.3155E+02
   5.830  0.1329E+01  0.3156E+02
   5.840  0.1958E+01  0.3158E+02
   5.850  0.2728E+01  0.3161E+02
   5.860  0.2625E+01  0.3163E+02
   5.870  0.2358E+01  0.3166E+02
   5.880  0.2663E+01  0.3168E+02
   5.890  0.3961E+01  0.3172E+02
   5.900  0.2724E+01  0.3175E+02
   5.910  0.2818E+01  0.3178E+02
   5.920  0.5101E+01  0.3183E+02
   5.930  0.6847E+01  0.3190E+02
   5.940  0.7665E+01  0.3197E+02
   5.950  0.6657E+01  0.3204E+02
   5.960  0.5451E+01  0.3209E+02
   5.970  0.4071E+01  0.3214E+02
   5.980  0.3968E+01  0.3217E+02
   5.990  0.6767E+01  0.3224E+02
   6.000  0.6576E+01  0.3231E+02
   6.010  0.2478E+01  0.3233E+02
   6.020  0.2148E+01  0.3235E+02
   6.030  0.2836E+01  0.3238E+02
   6.040  0.2654E+01  0.3241E+02
   6.050  0.2643E+01  0.3244E+02
   6.060  0.3199E+01  0.3247E+02
   6.070  0.3932E+01  0.3251E+02
   6.080  0.5599E+01  0.3256E+02
   6.090  0.4267E+01  0.3261E+02
   6.100  0.9664E+00  0.3262E+02
   6.110  0.4019E+00  0.3262E+02
   6.120  0.6699E+00  0.3263E+02
   6.130  0.1324E+01  0.3264E+02
   6.140  0.1242E+01  0.3265E+02
   6.150  0.1104E+01  0.3266E+02
   6.160  0.1595E+01  0.3268E+02
   6.170  0.3315E+01  0.3271E+02
   6.180  0.1856E+01  0.3273E+02
   6.190 -0.1989E+00  0.3273E+02
   6.200  0.3426E+00  0.3273E+02
   6.210  0.1563E+01  0.3275E+02
   6.220  0.2325E+01  0.3277E+02
   6.230  0.2127E+01  0.3279E+02
   6.240  0.5060E+00  0.3280E+02
   6.250  0.1113E+01  0.3281E+02
   6.260  0.3133E+01  0.3284E+02
   6.270  0.4451E+01  0.3288E+02
   6.280  0.4486E+01  0.3293E+02
   6.290  0.2274E+01  0.3295E+02
   6.300  0.1645E+01  0.3297E+02
   6.310  0.2466E+01  0.3299E+02
   6.320  0.2519E+01  0.3302E+02
   6.330  0.1963E+01  0.3304E+02
   6.340  0.2631E+01  0.3306E+02
   6.350  0.2481E+01  0.3309E+02
   6.360  0.1967E+01  0.3311E+02
   6.370  0.2777E+01  0.3314E+02
   6.380  0.6188E+01  0.3320E+02
   6.390  0.1353E+02  0.3333E+02
   6.400  0.1297E+02  0.3346E+02
   6.410  0.3981E+01  0.3350E+02
   6.420  0.1428E+01  0.3352E+02
   6.430  0.2125E+01  0.3354E+02
   6.440  0.1527E+01  0.3355E+02
   6.450  0.9669E+00  0.3356E+02
   6.460  0.1012E+01  0.3357E+02
   6.470  0.1887E+01  0.3359E+02
   6.480  0.2244E+01  0.3361E+02
   6.490  0.1861E+01  0.3363E+02
   6.500  0.2052E+01  0.3365E+02
   6.510  0.2688E+01  0.3368E+02
   6.520  0.1437E+01  0.3370E+02
   6.530 -0.2054E-01  0.3370E+02
   6.540  0.1635E+00  0.3370E+02
   6.550  0.1093E+01  0.3371E+02
   6.560  0.8296E+00  0.3372E+02
   6.570 -0.5748E-01  0.3372E+02
   6.580 -0.2079E-01  0.3372E+02
   6.590  0.7795E+00  0.3372E+02
   6.600  0.2292E+01  0.3375E+02
   6.610  0.1593E+01  0.3376E+02
   6.620 -0.1480E+00  0.3376E+02
   6.630 -0.1949E+00  0.3376E+02
   6.640 -0.2158E-01  0.3376E+02
   6.650 -0.6363E-03  0.3376E+02
   6.660 -0.5724E-05  0.3376E+02
   6.670  0.1516E-05  0.3376E+02
   6.680  0.2300E-03  0.3376E+02
   6.690  0.1129E-01  0.3376E+02
   6.700  0.1778E+00  0.3376E+02
   6.710  0.8608E+00  0.3377E+02
   6.720  0.1138E+01  0.3378E+02
   6.730  0.1897E+00  0.3378E+02
   6.740 -0.1461E+00  0.3378E+02
   6.750 -0.1195E-01  0.3378E+02
   6.760  0.2555E+00  0.3378E+02
   6.770  0.1001E+01  0.3379E+02
   6.780  0.1029E+01  0.3380E+02
   6.790  0.2360E+00  0.3381E+02
   6.800  0.9452E+00  0.3382E+02
   6.810  0.2106E+01  0.3384E+02
   6.820  0.1263E+01  0.3385E+02
   6.830 -0.7064E-01  0.3385E+02
   6.840 -0.1677E+00  0.3385E+02
   6.850 -0.2449E-01  0.3385E+02
   6.860 -0.9683E-03  0.3385E+02
   6.870 -0.1116E-04  0.3385E+02
   6.880  0.1106E-03  0.3385E+02
   6.890  0.6509E-02  0.3385E+02
   6.900  0.1233E+00  0.3385E+02
   6.910  0.7256E+00  0.3385E+02
   6.920  0.1212E+01  0.3387E+02
   6.930  0.5094E+00  0.3387E+02
   6.940  0.6871E+00  0.3388E+02
   6.950  0.1106E+01  0.3389E+02
   6.960  0.2099E+00  0.3389E+02
   6.970 -0.1484E+00  0.3389E+02
   6.980 -0.3048E-01  0.3389E+02
   6.990  0.1126E+00  0.3389E+02
   7.000  0.1264E+01  0.3390E+02
   7.010  0.4902E+01  0.3395E+02
   7.020  0.7159E+01  0.3402E+02
   7.030  0.4850E+01  0.3407E+02
   7.040  0.3014E+01  0.3410E+02
   7.050  0.3057E+01  0.3413E+02
   7.060  0.3699E+01  0.3417E+02
   7.070  0.5021E+01  0.3422E+02
   7.080  0.5438E+01  0.3428E+02
   7.090  0.5037E+01  0.3433E+02
   7.100  0.4071E+01  0.3437E+02
   7.110  0.2824E+01  0.3439E+02
   7.120  0.3099E+01  0.3443E+02
   7.130  0.2537E+01  0.3445E+02
   7.140  0.2315E+01  0.3447E+02
   7.150  0.4155E+01  0.3452E+02
   7.160  0.4785E+01  0.3456E+02
   7.170  0.4359E+01  0.3461E+02
   7.180  0.4164E+01  0.3465E+02
   7.190  0.4274E+01  0.3469E+02
   7.200  0.2947E+01  0.3472E+02
   7.210  0.3850E+01  0.3476E+02
   7.220  0.3459E+01  0.3479E+02
   7.230  0.1583E+01  0.3481E+02
   7.240  0.1893E+01  0.3483E+02
   7.250  0.1924E+01  0.3485E+02
   7.260  0.2243E+01  0.3487E+02
   7.270  0.2024E+01  0.3489E+02
   7.280  0.2901E+01  0.3492E+02
   7.290  0.4038E+01  0.3496E+02
   7.300  0.1711E+01  0.3498E+02
   7.310  0.8571E+00  0.3499E+02
   7.320  0.1285E+01  0.3500E+02
   7.330  0.2603E+01  0.3502E+02
   7.340  0.3235E+01  0.3506E+02
   7.350  0.1785E+01  0.3507E+02
   7.360  0.2645E+01  0.3510E+02
   7.370  0.3113E+01  0.3513E+02
   7.380  0.3253E+01  0.3516E+02
   7.390  0.4072E+01  0.3521E+02
   7.400  0.3766E+01  0.3524E+02
   7.410  0.3491E+01  0.3528E+02
   7.420  0.2792E+01  0.3531E+02
   7.430  0.1565E+01  0.3532E+02
   7.440 -0.1069E-02  0.3532E+02
   7.450 -0.7959E-01  0.3532E+02
   7.460  0.8139E+00  0.3533E+02
   7.470  0.1137E+01  0.3534E+02
   7.480  0.1915E+00  0.3534E+02
   7.490 -0.1468E+00  0.3534E+02
   7.500 -0.3216E-01  0.3534E+02
   7.510 -0.1175E-02  0.3534E+02
   7.520  0.1778E-01  0.3534E+02
   7.530  0.2384E+00  0.3534E+02
   7.540  0.9726E+00  0.3535E+02
   7.550  0.1048E+01  0.3536E+02
   7.560  0.7819E-01  0.3536E+02
   7.570 -0.1334E+00  0.3536E+02
   7.580 -0.2274E-01  0.3536E+02
   7.590 -0.9195E-03  0.3536E+02
   7.600  0.1942E-02  0.3536E+02
   7.610  0.5368E-01  0.3536E+02
   7.620  0.4650E+00  0.3537E+02
   7.630  0.1186E+01  0.3538E+02
   7.640  0.6909E+00  0.3539E+02
   7.650 -0.1076E+00  0.3539E+02
   7.660 -0.7463E-01  0.3538E+02
   7.670  0.1481E+00  0.3539E+02
   7.680  0.8117E+00  0.3539E+02
   7.690  0.1167E+01  0.3541E+02
   7.700  0.2688E+00  0.3541E+02
   7.710  0.1553E+00  0.3541E+02
   7.720  0.1027E+01  0.3542E+02
   7.730  0.9383E+00  0.3543E+02
   7.740 -0.3949E-02  0.3543E+02
   7.750 -0.1175E+00  0.3543E+02
   7.760 -0.1626E-01  0.3543E+02
   7.770 -0.5739E-03  0.3543E+02
   7.780  0.2607E-04  0.3543E+02
   7.790  0.2529E-02  0.3543E+02
   7.800  0.6438E-01  0.3543E+02
   7.810  0.5152E+00  0.3543E+02
   7.820  0.1205E+01  0.3545E+02
   7.830  0.6176E+00  0.3545E+02
   7.840 -0.1246E+00  0.3545E+02
   7.850 -0.7509E-01  0.3545E+02
   7.860 -0.6537E-02  0.3545E+02
   7.870 -0.1571E-03  0.3545E+02
   7.880  0.4262E-04  0.3545E+02
   7.890  0.3206E-02  0.3545E+02
   7.900  0.7596E-01  0.3545E+02
   7.910  0.5642E+00  0.3546E+02
   7.920  0.1215E+01  0.3547E+02
   7.930  0.5486E+00  0.3547E+02
   7.940 -0.1364E+00  0.3547E+02
   7.950 -0.6720E-01  0.3547E+02
   7.960 -0.3652E-02  0.3547E+02
   7.970  0.4869E-01  0.3547E+02
   7.980  0.4403E+00  0.3548E+02
   7.990  0.1177E+01  0.3549E+02
   8.000  0.8058E+00  0.3550E+02
   8.010  0.4742E+00  0.3550E+02
   8.020  0.1127E+01  0.3551E+02
   8.030  0.5297E+00  0.3552E+02
   8.040 -0.1381E+00  0.3552E+02
   8.050 -0.6611E-01  0.3552E+02
   8.060 -0.5205E-02  0.3552E+02
   8.070 -0.1143E-03  0.3552E+02
   8.080  0.9035E-04  0.3552E+02
   8.090  0.5617E-02  0.3552E+02
   8.100  0.1116E+00  0.3552E+02
   8.110  0.6903E+00  0.3552E+02
   8.120  0.1210E+01  0.3554E+02
   8.130  0.3841E+00  0.3554E+02
   8.140 -0.1509E+00  0.3554E+02
   8.150 -0.4103E-01  0.3554E+02
   8.160  0.1490E+00  0.3554E+02
   8.170  0.8024E+00  0.3555E+02
   8.180  0.1172E+01  0.3556E+02
   8.190  0.2779E+00  0.3556E+02
   8.200  0.1447E+00  0.3556E+02
   8.210  0.1014E+01  0.3557E+02
   8.220  0.9545E+00  0.3558E+02
   8.230  0.6393E-02  0.3558E+02
   8.240 -0.1198E+00  0.3558E+02
   8.250 -0.1685E-01  0.3558E+02
   8.260  0.1002E-01  0.3558E+02
   8.270  0.1714E+00  0.3558E+02
   8.280  0.8649E+00  0.3559E+02
   8.290  0.1396E+01  0.3561E+02
   8.300  0.1193E+01  0.3562E+02
   8.310  0.8841E+00  0.3563E+02
   8.320  0.3057E-01  0.3563E+02
   8.330 -0.1328E+00  0.3563E+02
   8.340 -0.2162E-01  0.3563E+02
   8.350 -0.8266E-03  0.3563E+02
   8.360  0.3331E-02  0.3563E+02
   8.370  0.7817E-01  0.3563E+02
   8.380  0.5730E+00  0.3563E+02
   8.390  0.1216E+01  0.3565E+02
   8.400  0.5366E+00  0.3565E+02
   8.410 -0.1374E+00  0.3565E+02
   8.420 -0.3942E-01  0.3565E+02
   8.430  0.3004E+00  0.3565E+02
   8.440  0.1070E+01  0.3566E+02
   8.450  0.1065E+01  0.3567E+02
   8.460  0.7268E+00  0.3568E+02
   8.470  0.1083E+01  0.3569E+02
   8.480  0.3188E+00  0.3569E+02
   8.490 -0.1527E+00  0.3569E+02
   8.500 -0.4508E-01  0.3569E+02
   8.510  0.4182E-02  0.3569E+02
   8.520  0.1331E+00  0.3569E+02
   8.530  0.8528E+00  0.3570E+02
   8.540  0.1969E+01  0.3572E+02
   8.550  0.2110E+01  0.3574E+02
   8.560  0.1448E+01  0.3576E+02
   8.570  0.4273E+00  0.3576E+02
   8.580  0.6501E+00  0.3577E+02
   8.590  0.2759E+01  0.3580E+02
   8.600  0.2928E+01  0.3583E+02
   8.610  0.5630E+00  0.3583E+02
   8.620  0.8976E+00  0.3584E+02
   8.630  0.2516E+01  0.3586E+02
   8.640  0.1879E+01  0.3588E+02
   8.650  0.9873E+00  0.3589E+02
   8.660  0.1006E+01  0.3590E+02
   8.670  0.2141E+01  0.3593E+02
   8.680  0.2372E+01  0.3595E+02
   8.690  0.1078E+01  0.3596E+02
   8.700  0.1667E+00  0.3596E+02
   8.710  0.8998E+00  0.3597E+02
   8.720  0.9201E+00  0.3598E+02
   8.730 -0.3553E-02  0.3598E+02
   8.740 -0.1083E+00  0.3598E+02
   8.750  0.1410E+00  0.3598E+02
   8.760  0.8142E+00  0.3599E+02
   8.770  0.1165E+01  0.3600E+02
   8.780  0.2392E+00  0.3600E+02
   8.790 -0.1499E+00  0.3600E+02
   8.800 -0.3635E-01  0.3600E+02
   8.810 -0.1936E-02  0.3600E+02
   8.820 -0.3015E-04  0.3600E+02
   8.830 -0.1476E-06  0.3600E+02
   8.840 -0.2341E-09  0.3600E+02
   8.850 -0.1222E-12  0.3600E+02
   8.860 -0.2115E-16  0.3600E+02
   8.870 -0.1222E-20  0.3600E+02
   8.880 -0.2365E-25  0.3600E+02
   8.890 -0.1538E-30  0.3600E+02
   8.900 -0.3363E-36  0.3600E+02
   8.910 -0.2478E-42  0.3600E+02
   8.920 -0.6162E-49  0.3600E+02
   8.930 -0.5173E-56  0.3600E+02
   8.940 -0.1467E-63  0.3600E+02
   8.950 -0.1407E-71  0.3600E+02
   8.960 -0.1709E-79  0.3600E+02
   8.970 -0.1253E-79  0.3600E+02
   8.980 -0.1253E-79  0.3600E+02
   8.990 -0.1254E-79  0.3600E+02
   9.000 -0.1254E-79  0.3600E+02
   9.010 -0.1255E-79  0.3600E+02
   9.020 -0.1255E-79  0.3600E+02
   9.030 -0.1256E-79  0.3600E+02
   9.040 -0.1256E-79  0.3600E+02
   9.050 -0.1257E-79  0.3600E+02
   9.060 -0.1257E-79  0.3600E+02
   9.070 -0.1258E-79  0.3600E+02
   9.080 -0.1258E-79  0.3600E+02
   9.090 -0.1259E-79  0.3600E+02
   9.100 -0.1259E-79  0.3600E+02
   9.110 -0.1260E-79  0.3600E+02
   9.120 -0.1260E-79  0.3600E+02
   9.130 -0.1261E-79  0.3600E+02
   9.140 -0.1261E-79  0.3600E+02
   9.150 -0.1262E-79  0.3600E+02
   9.160 -0.1262E-79  0.3600E+02
   9.170 -0.1263E-79  0.3600E+02
   9.180 -0.1263E-79  0.3600E+02
   9.190 -0.1264E-79  0.3600E+02
   9.200 -0.1264E-79  0.3600E+02
   9.210 -0.1265E-79  0.3600E+02
   9.220 -0.1265E-79  0.3600E+02
   9.230 -0.1266E-79  0.3600E+02
   9.240 -0.1266E-79  0.3600E+02
   9.250 -0.1267E-79  0.3600E+02
   9.260 -0.1267E-79  0.3600E+02
   9.270 -0.1268E-79  0.3600E+02
   9.280 -0.1268E-79  0.3600E+02
   9.290 -0.1269E-79  0.3600E+02
   9.300 -0.1269E-79  0.3600E+02
   9.310 -0.1270E-79  0.3600E+02
   9.320 -0.1270E-79  0.3600E+02
   9.330 -0.1271E-79  0.3600E+02
   9.340 -0.1271E-79  0.3600E+02
   9.350 -0.1272E-79  0.3600E+02
   9.360 -0.1272E-79  0.3600E+02
   9.370 -0.1273E-79  0.3600E+02
   9.380 -0.1273E-79  0.3600E+02
   9.390 -0.1274E-79  0.3600E+02
   9.400 -0.1274E-79  0.3600E+02
   9.410 -0.1275E-79  0.3600E+02
   9.420 -0.1275E-79  0.3600E+02
   9.430 -0.1276E-79  0.3600E+02
   9.440 -0.1276E-79  0.3600E+02
   9.450 -0.1277E-79  0.3600E+02
   9.460 -0.1277E-79  0.3600E+02
   9.470 -0.1278E-79  0.3600E+02
   9.480 -0.1278E-79  0.3600E+02
   9.490 -0.1279E-79  0.3600E+02
   9.500 -0.1279E-79  0.3600E+02
   9.510 -0.1280E-79  0.3600E+02
   9.520 -0.1280E-79  0.3600E+02
   9.530 -0.1281E-79  0.3600E+02
   9.540 -0.1281E-79  0.3600E+02
   9.550 -0.1282E-79  0.3600E+02
   9.560 -0.1282E-79  0.3600E+02
   9.570 -0.1283E-79  0.3600E+02
   9.580 -0.1283E-79  0.3600E+02
   9.590 -0.1284E-79  0.3600E+02
   9.600 -0.1284E-79  0.3600E+02
   9.610 -0.1285E-79  0.3600E+02
   9.620 -0.1285E-79  0.3600E+02
   9.630 -0.1286E-79  0.3600E+02
   9.640 -0.1286E-79  0.3600E+02
   9.650 -0.1287E-79  0.3600E+02
   9.660 -0.1287E-79  0.3600E+02
   9.670 -0.1288E-79  0.3600E+02
   9.680 -0.1288E-79  0.3600E+02
   9.690 -0.1289E-79  0.3600E+02
   9.700 -0.1289E-79  0.3600E+02
   9.710 -0.1290E-79  0.3600E+02
   9.720 -0.1290E-79  0.3600E+02
   9.730 -0.1291E-79  0.3600E+02
   9.740 -0.1291E-79  0.3600E+02
   9.750 -0.1292E-79  0.3600E+02
   9.760 -0.1292E-79  0.3600E+02
   9.770 -0.1293E-79  0.3600E+02
   9.780 -0.1293E-79  0.3600E+02
   9.790 -0.1294E-79  0.3600E+02
   9.800 -0.1294E-79  0.3600E+02
   9.810 -0.1295E-79  0.3600E+02
   9.820 -0.1295E-79  0.3600E+02
   9.830 -0.1296E-79  0.3600E+02
   9.840 -0.1296E-79  0.3600E+02
   9.850 -0.1297E-79  0.3600E+02
   9.860 -0.1297E-79  0.3600E+02
   9.870 -0.1298E-79  0.3600E+02
   9.880 -0.1298E-79  0.3600E+02
   9.890 -0.1299E-79  0.3600E+02
   9.900 -0.1299E-79  0.3600E+02
   9.910 -0.1300E-79  0.3600E+02
   9.920 -0.1300E-79  0.3600E+02
   9.930 -0.1301E-79  0.3600E+02
   9.940 -0.1301E-79  0.3600E+02
   9.950 -0.1302E-79  0.3600E+02
   9.960 -0.1302E-79  0.3600E+02
   9.970 -0.1303E-79  0.3600E+02
   9.980 -0.1303E-79  0.3600E+02
   9.990 -0.1304E-79  0.3600E+02
  10.000 -0.1304E-79  0.3600E+02
  10.010 -0.1305E-79  0.3600E+02
  10.020 -0.1305E-79  0.3600E+02
  10.030 -0.1306E-79  0.3600E+02
  10.040 -0.1306E-79  0.3600E+02
  10.050 -0.1307E-79  0.3600E+02
  10.060 -0.1307E-79  0.3600E+02
  10.070 -0.1308E-79  0.3600E+02
  10.080 -0.1308E-79  0.3600E+02
  10.090 -0.1309E-79  0.3600E+02
  10.100 -0.1309E-79  0.3600E+02
  10.110 -0.1310E-79  0.3600E+02
  10.120 -0.1310E-79  0.3600E+02
  10.130 -0.1311E-79  0.3600E+02
  10.140 -0.1311E-79  0.3600E+02
  10.150 -0.1312E-79  0.3600E+02
  10.160 -0.1312E-79  0.3600E+02
  10.170 -0.1313E-79  0.3600E+02
  10.180 -0.1313E-79  0.3600E+02
  10.190 -0.1314E-79  0.3600E+02
  10.200 -0.1314E-79  0.3600E+02
  10.210 -0.1315E-79  0.3600E+02
  10.220 -0.1315E-79  0.3600E+02
  10.230 -0.1316E-79  0.3600E+02
  10.240 -0.1316E-79  0.3600E+02
  10.250 -0.1317E-79  0.3600E+02
  10.260 -0.1317E-79  0.3600E+02
  10.270 -0.1318E-79  0.3600E+02
  10.280 -0.1318E-79  0.3600E+02
  10.290 -0.1319E-79  0.3600E+02
  10.300 -0.1319E-79  0.3600E+02
  10.310 -0.1320E-79  0.3600E+02
  10.320 -0.1320E-79  0.3600E+02
  10.330 -0.1321E-79  0.3600E+02
  10.340 -0.1321E-79  0.3600E+02
  10.350 -0.1322E-79  0.3600E+02
  10.360 -0.1322E-79  0.3600E+02
  10.370 -0.1323E-79  0.3600E+02
  10.380 -0.1323E-79  0.3600E+02
  10.390 -0.1324E-79  0.3600E+02
  10.400 -0.1324E-79  0.3600E+02
  10.410 -0.1325E-79  0.3600E+02
  10.420 -0.1325E-79  0.3600E+02
  10.430 -0.1326E-79  0.3600E+02
  10.440 -0.1326E-79  0.3600E+02
  10.450 -0.1327E-79  0.3600E+02
  10.460 -0.1327E-79  0.3600E+02
  10.470 -0.1328E-79  0.3600E+02
  10.480 -0.1328E-79  0.3600E+02
  10.490 -0.1329E-79  0.3600E+02
  10.500 -0.1329E-79  0.3600E+02
  10.510 -0.1330E-79  0.3600E+02
  10.520 -0.1330E-79  0.3600E+02
  10.530 -0.1331E-79  0.3600E+02
  10.540 -0.1331E-79  0.3600E+02
  10.550 -0.1332E-79  0.3600E+02
  10.560 -0.1332E-79  0.3600E+02
  10.570 -0.1333E-79  0.3600E+02
  10.580 -0.1333E-79  0.3600E+02
  10.590 -0.1334E-79  0.3600E+02
  10.600 -0.1334E-79  0.3600E+02
  10.610 -0.1335E-79  0.3600E+02
  10.620 -0.1335E-79  0.3600E+02
  10.630 -0.1336E-79  0.3600E+02
  10.640 -0.1336E-79  0.3600E+02
  10.650 -0.1337E-79  0.3600E+02
  10.660 -0.1337E-79  0.3600E+02
  10.670 -0.1338E-79  0.3600E+02
  10.680 -0.1338E-79  0.3600E+02
  10.690 -0.1339E-79  0.3600E+02
  10.700 -0.1339E-79  0.3600E+02
  10.710 -0.1340E-79  0.3600E+02
  10.720 -0.1340E-79  0.3600E+02
  10.730 -0.1341E-79  0.3600E+02
  10.740 -0.1341E-79  0.3600E+02
  10.750 -0.1342E-79  0.3600E+02
  10.760 -0.1342E-79  0.3600E+02
  10.770 -0.1343E-79  0.3600E+02
  10.780 -0.1343E-79  0.3600E+02
  10.790 -0.1344E-79  0.3600E+02
  10.800 -0.1344E-79  0.3600E+02
  10.810 -0.1345E-79  0.3600E+02
  10.820 -0.1345E-79  0.3600E+02
  10.830 -0.1346E-79  0.3600E+02
  10.840 -0.1346E-79  0.3600E+02
  10.850 -0.1347E-79  0.3600E+02
  10.860 -0.1347E-79  0.3600E+02
  10.870 -0.1348E-79  0.3600E+02
  10.880 -0.1348E-79  0.3600E+02
  10.890 -0.1349E-79  0.3600E+02
  10.900 -0.1349E-79  0.3600E+02
  10.910 -0.1350E-79  0.3600E+02
  10.920 -0.1350E-79  0.3600E+02
  10.930 -0.1351E-79  0.3600E+02
  10.940 -0.1351E-79  0.3600E+02
  10.950 -0.1352E-79  0.3600E+02
  10.960 -0.1352E-79  0.3600E+02
  10.970 -0.1353E-79  0.3600E+02
  10.980 -0.1353E-79  0.3600E+02
  10.990 -0.1354E-79  0.3600E+02
  11.000 -0.1354E-79  0.3600E+02
  11.010 -0.1355E-79  0.3600E+02
  11.020 -0.1355E-79  0.3600E+02
  11.030 -0.1356E-79  0.3600E+02
  11.040 -0.1356E-79  0.3600E+02
  11.050 -0.1357E-79  0.3600E+02
  11.060 -0.1357E-79  0.3600E+02
  11.070 -0.1358E-79  0.3600E+02
  11.080 -0.1358E-79  0.3600E+02
  11.090 -0.1359E-79  0.3600E+02
  11.100 -0.1359E-79  0.3600E+02
  11.110 -0.1360E-79  0.3600E+02
  11.120 -0.1360E-79  0.3600E+02
  11.130 -0.1361E-79  0.3600E+02
  11.140 -0.1361E-79  0.3600E+02
  11.150 -0.1362E-79  0.3600E+02
  11.160 -0.1362E-79  0.3600E+02
  11.170 -0.1363E-79  0.3600E+02
  11.180 -0.1363E-79  0.3600E+02
  11.190 -0.1364E-79  0.3600E+02
  11.200 -0.1364E-79  0.3600E+02
  11.210 -0.1365E-79  0.3600E+02
  11.220 -0.1365E-79  0.3600E+02
  11.230 -0.1366E-79  0.3600E+02
  11.240 -0.1366E-79  0.3600E+02
  11.250 -0.1367E-79  0.3600E+02
  11.260 -0.1367E-79  0.3600E+02
  11.270 -0.1368E-79  0.3600E+02
  11.280 -0.1368E-79  0.3600E+02
  11.290 -0.1369E-79  0.3600E+02
  11.300 -0.1369E-79  0.3600E+02
  11.310 -0.1370E-79  0.3600E+02
  11.320 -0.1370E-79  0.3600E+02
  11.330 -0.1371E-79  0.3600E+02
  11.340 -0.1371E-79  0.3600E+02
  11.350 -0.1372E-79  0.3600E+02
  11.360 -0.1372E-79  0.3600E+02
  11.370 -0.1373E-79  0.3600E+02
  11.380 -0.1373E-79  0.3600E+02
  11.390 -0.1374E-79  0.3600E+02
  11.400 -0.1374E-79  0.3600E+02
  11.410 -0.1375E-79  0.3600E+02
  11.420 -0.1375E-79  0.3600E+02
  11.430 -0.1376E-79  0.3600E+02
  11.440 -0.1376E-79  0.3600E+02
  11.450 -0.1377E-79  0.3600E+02
  11.460 -0.1377E-79  0.3600E+02
  11.470 -0.1378E-79  0.3600E+02
  11.480 -0.1378E-79  0.3600E+02
  11.490 -0.1379E-79  0.3600E+02
  11.500 -0.1379E-79  0.3600E+02
  11.510 -0.1380E-79  0.3600E+02
  11.520 -0.1380E-79  0.3600E+02
  11.530 -0.1381E-79  0.3600E+02
  11.540 -0.1381E-79  0.3600E+02
  11.550 -0.1382E-79  0.3600E+02
  11.560 -0.1382E-79  0.3600E+02
  11.570 -0.1383E-79  0.3600E+02
  11.580 -0.1383E-79  0.3600E+02
  11.590 -0.1384E-79  0.3600E+02
  11.600 -0.1384E-79  0.3600E+02
  11.610 -0.1385E-79  0.3600E+02
  11.620 -0.1385E-79  0.3600E+02
  11.630 -0.1386E-79  0.3600E+02
  11.640 -0.1386E-79  0.3600E+02
  11.650 -0.1387E-79  0.3600E+02
  11.660 -0.1387E-79  0.3600E+02
  11.670 -0.1388E-79  0.3600E+02
  11.680 -0.1388E-79  0.3600E+02
  11.690 -0.1389E-79  0.3600E+02
  11.700 -0.1389E-79  0.3600E+02
  11.710 -0.1390E-79  0.3600E+02
  11.720 -0.1390E-79  0.3600E+02
  11.730 -0.1391E-79  0.3600E+02
  11.740 -0.1391E-79  0.3600E+02
  11.750 -0.1392E-79  0.3600E+02
  11.760 -0.1392E-79  0.3600E+02
  11.770 -0.1393E-79  0.3600E+02
  11.780 -0.1393E-79  0.3600E+02
  11.790 -0.1394E-79  0.3600E+02
  11.800 -0.1394E-79  0.3600E+02
  11.810 -0.1395E-79  0.3600E+02
  11.820 -0.1395E-79  0.3600E+02
  11.830 -0.1396E-79  0.3600E+02
  11.840 -0.1396E-79  0.3600E+02
  11.850 -0.1397E-79  0.3600E+02
  11.860 -0.1397E-79  0.3600E+02
  11.870 -0.1398E-79  0.3600E+02
  11.880 -0.1398E-79  0.3600E+02
  11.890 -0.1399E-79  0.3600E+02
  11.900 -0.1399E-79  0.3600E+02
  11.910 -0.1400E-79  0.3600E+02
  11.920 -0.1400E-79  0.3600E+02
  11.930 -0.1401E-79  0.3600E+02
  11.940 -0.1402E-79  0.3600E+02
  11.950 -0.1402E-79  0.3600E+02
  11.960 -0.1403E-79  0.3600E+02
  11.970 -0.1403E-79  0.3600E+02
  11.980 -0.1404E-79  0.3600E+02
  11.990 -0.1404E-79  0.3600E+02
  12.000 -0.1405E-79  0.3600E+02
  12.010 -0.1405E-79  0.3600E+02
  12.020 -0.1406E-79  0.3600E+02
  12.030 -0.1406E-79  0.3600E+02
  12.040 -0.1407E-79  0.3600E+02
  12.050 -0.1407E-79  0.3600E+02
  12.060 -0.1408E-79  0.3600E+02
  12.070 -0.1408E-79  0.3600E+02
  12.080 -0.1409E-79  0.3600E+02
  12.090 -0.1409E-79  0.3600E+02
  12.100 -0.1410E-79  0.3600E+02
  12.110 -0.1410E-79  0.3600E+02
  12.120 -0.1411E-79  0.3600E+02
  12.130 -0.1411E-79  0.3600E+02
  12.140 -0.1412E-79  0.3600E+02
  12.150 -0.1412E-79  0.3600E+02
  12.160 -0.1413E-79  0.3600E+02
  12.170 -0.1413E-79  0.3600E+02
  12.180 -0.1414E-79  0.3600E+02
  12.190 -0.1414E-79  0.3600E+02
  12.200 -0.1415E-79  0.3600E+02
  12.210 -0.1415E-79  0.3600E+02
  12.220 -0.1416E-79  0.3600E+02
  12.230 -0.1416E-79  0.3600E+02
  12.240 -0.1417E-79  0.3600E+02
  12.250 -0.1417E-79  0.3600E+02
  12.260 -0.1418E-79  0.3600E+02
  12.270 -0.1418E-79  0.3600E+02
  12.280 -0.1419E-79  0.3600E+02
  12.290 -0.1419E-79  0.3600E+02
  12.300 -0.1420E-79  0.3600E+02
  12.310 -0.1420E-79  0.3600E+02
  12.320 -0.1421E-79  0.3600E+02
  12.330 -0.1421E-79  0.3600E+02
  12.340 -0.1422E-79  0.3600E+02
  12.350 -0.1422E-79  0.3600E+02
  12.360 -0.1423E-79  0.3600E+02
  12.370 -0.1423E-79  0.3600E+02
  12.380 -0.1424E-79  0.3600E+02
  12.390 -0.1424E-79  0.3600E+02
  12.400 -0.1425E-79  0.3600E+02
  12.410 -0.1425E-79  0.3600E+02
  12.420 -0.1426E-79  0.3600E+02
  12.430 -0.1426E-79  0.3600E+02
  12.440 -0.1427E-79  0.3600E+02
  12.450 -0.1427E-79  0.3600E+02
  12.460 -0.1428E-79  0.3600E+02
  12.470 -0.1428E-79  0.3600E+02
  12.480 -0.1429E-79  0.3600E+02
  12.490 -0.1429E-79  0.3600E+02
  12.500 -0.1430E-79  0.3600E+02
  12.510 -0.1430E-79  0.3600E+02
  12.520 -0.1431E-79  0.3600E+02
  12.530 -0.1431E-79  0.3600E+02
  12.540 -0.1432E-79  0.3600E+02
  12.550 -0.1432E-79  0.3600E+02
  12.560 -0.1433E-79  0.3600E+02
  12.570 -0.1433E-79  0.3600E+02
  12.580 -0.1434E-79  0.3600E+02
  12.590 -0.1434E-79  0.3600E+02
  12.600 -0.1435E-79  0.3600E+02
  12.610 -0.1435E-79  0.3600E+02
  12.620 -0.1436E-79  0.3600E+02
  12.630 -0.1436E-79  0.3600E+02
  12.640 -0.1437E-79  0.3600E+02
  12.650 -0.1437E-79  0.3600E+02
  12.660 -0.1438E-79  0.3600E+02
  12.670 -0.1438E-79  0.3600E+02
  12.680 -0.1439E-79  0.3600E+02
  12.690 -0.1439E-79  0.3600E+02
  12.700 -0.1440E-79  0.3600E+02
  12.710 -0.1440E-79  0.3600E+02
  12.720 -0.1441E-79  0.3600E+02
  12.730 -0.1441E-79  0.3600E+02
  12.740 -0.1442E-79  0.3600E+02
  12.750 -0.1442E-79  0.3600E+02
  12.760 -0.1443E-79  0.3600E+02
  12.770 -0.1443E-79  0.3600E+02
  12.780 -0.1444E-79  0.3600E+02
  12.790 -0.1444E-79  0.3600E+02
  12.800 -0.1445E-79  0.3600E+02
  12.810 -0.1445E-79  0.3600E+02
  12.820 -0.1446E-79  0.3600E+02
  12.830 -0.1446E-79  0.3600E+02
  12.840 -0.1447E-79  0.3600E+02
  12.850 -0.1447E-79  0.3600E+02
  12.860 -0.1448E-79  0.3600E+02
  12.870 -0.1448E-79  0.3600E+02
  12.880 -0.1449E-79  0.3600E+02
  12.890 -0.1449E-79  0.3600E+02
  12.900 -0.1450E-79  0.3600E+02
  12.910 -0.1450E-79  0.3600E+02
  12.920 -0.1451E-79  0.3600E+02
  12.930 -0.1451E-79  0.3600E+02
  12.940 -0.1452E-79  0.3600E+02
  12.950 -0.1452E-79  0.3600E+02
  12.960 -0.1453E-79  0.3600E+02
  12.970 -0.1453E-79  0.3600E+02
  12.980 -0.1454E-79  0.3600E+02
  12.990 -0.1454E-79  0.3600E+02
  13.000 -0.1455E-79  0.3600E+02
  13.010 -0.1455E-79  0.3600E+02
  13.020 -0.1456E-79  0.3600E+02
  13.030 -0.1456E-79  0.3600E+02
  13.040 -0.1457E-79  0.3600E+02
  13.050 -0.1457E-79  0.3600E+02
  13.060 -0.1458E-79  0.3600E+02
  13.070 -0.1458E-79  0.3600E+02
  13.080 -0.1459E-79  0.3600E+02
  13.090 -0.1459E-79  0.3600E+02
  13.100 -0.1460E-79  0.3600E+02
  13.110 -0.1460E-79  0.3600E+02
  13.120 -0.1461E-79  0.3600E+02
  13.130 -0.1461E-79  0.3600E+02
  13.140 -0.1462E-79  0.3600E+02
  13.150 -0.1462E-79  0.3600E+02
  13.160 -0.1463E-79  0.3600E+02
  13.170 -0.1463E-79  0.3600E+02
  13.180 -0.1464E-79  0.3600E+02
  13.190 -0.1464E-79  0.3600E+02
  13.200 -0.1465E-79  0.3600E+02
  13.210 -0.1465E-79  0.3600E+02
  13.220 -0.1466E-79  0.3600E+02
  13.230 -0.1466E-79  0.3600E+02
  13.240 -0.1467E-79  0.3600E+02
  13.250 -0.1467E-79  0.3600E+02
  13.260 -0.1468E-79  0.3600E+02
  13.270 -0.1468E-79  0.3600E+02
  13.280 -0.1469E-79  0.3600E+02
  13.290 -0.1469E-79  0.3600E+02
  13.300 -0.1470E-79  0.3600E+02
  13.310 -0.1470E-79  0.3600E+02
  13.320 -0.1471E-79  0.3600E+02
  13.330 -0.1471E-79  0.3600E+02
  13.340 -0.1472E-79  0.3600E+02
  13.350 -0.1472E-79  0.3600E+02
  13.360 -0.1473E-79  0.3600E+02
  13.370 -0.1473E-79  0.3600E+02
  13.380 -0.1474E-79  0.3600E+02
  13.390 -0.1474E-79  0.3600E+02
  13.400 -0.1475E-79  0.3600E+02
  13.410 -0.1475E-79  0.3600E+02
  13.420 -0.1476E-79  0.3600E+02
  13.430 -0.1476E-79  0.3600E+02
  13.440 -0.1477E-79  0.3600E+02
  13.450 -0.1477E-79  0.3600E+02
  13.460 -0.1478E-79  0.3600E+02
  13.470 -0.1478E-79  0.3600E+02
  13.480 -0.1479E-79  0.3600E+02
  13.490 -0.1479E-79  0.3600E+02
  13.500 -0.1480E-79  0.3600E+02
  13.510 -0.1480E-79  0.3600E+02
  13.520 -0.1481E-79  0.3600E+02
  13.530 -0.1481E-79  0.3600E+02
  13.540 -0.1482E-79  0.3600E+02
  13.550 -0.1482E-79  0.3600E+02
  13.560 -0.1483E-79  0.3600E+02
  13.570 -0.1483E-79  0.3600E+02
  13.580 -0.1484E-79  0.3600E+02
  13.590 -0.1484E-79  0.3600E+02
  13.600 -0.1485E-79  0.3600E+02
  13.610 -0.1485E-79  0.3600E+02
  13.620 -0.1486E-79  0.3600E+02
  13.630 -0.1486E-79  0.3600E+02
  13.640 -0.1487E-79  0.3600E+02
  13.650 -0.1487E-79  0.3600E+02
  13.660 -0.1488E-79  0.3600E+02
  13.670 -0.1488E-79  0.3600E+02
  13.680 -0.1489E-79  0.3600E+02
  13.690 -0.1489E-79  0.3600E+02
  13.700 -0.1490E-79  0.3600E+02
  13.710 -0.1490E-79  0.3600E+02
  13.720 -0.1491E-79  0.3600E+02
  13.730 -0.1491E-79  0.3600E+02
  13.740 -0.1492E-79  0.3600E+02
  13.750 -0.1492E-79  0.3600E+02
  13.760 -0.1493E-79  0.3600E+02
  13.770 -0.1493E-79  0.3600E+02
  13.780 -0.1494E-79  0.3600E+02
  13.790 -0.1494E-79  0.3600E+02
  13.800 -0.1495E-79  0.3600E+02
  13.810 -0.1495E-79  0.3600E+02
  13.820 -0.1496E-79  0.3600E+02
  13.830 -0.1496E-79  0.3600E+02
  13.840 -0.1497E-79  0.3600E+02
  13.850 -0.1497E-79  0.3600E+02
  13.860 -0.1498E-79  0.3600E+02
  13.870 -0.1498E-79  0.3600E+02
  13.880 -0.1499E-79  0.3600E+02
  13.890 -0.1499E-79  0.3600E+02
  13.900 -0.1500E-79  0.3600E+02
  13.910 -0.1500E-79  0.3600E+02
  13.920 -0.1501E-79  0.3600E+02
  13.930 -0.1501E-79  0.3600E+02
  13.940 -0.1502E-79  0.3600E+02
  13.950 -0.1502E-79  0.3600E+02
  13.960 -0.1503E-79  0.3600E+02
  13.970 -0.1503E-79  0.3600E+02
  13.980 -0.1504E-79  0.3600E+02
  13.990 -0.1504E-79  0.3600E+02
  14.000 -0.1505E-79  0.3600E+02
  14.010 -0.1505E-79  0.3600E+02
  14.020 -0.1506E-79  0.3600E+02
  14.030 -0.1506E-79  0.3600E+02
  14.040 -0.1507E-79  0.3600E+02
  14.050 -0.1507E-79  0.3600E+02
  14.060 -0.1508E-79  0.3600E+02
  14.070 -0.1508E-79  0.3600E+02
  14.080 -0.1509E-79  0.3600E+02
  14.090 -0.1509E-79  0.3600E+02
  14.100 -0.1510E-79  0.3600E+02
  14.110 -0.1510E-79  0.3600E+02
  14.120 -0.1511E-79  0.3600E+02
  14.130 -0.1511E-79  0.3600E+02
  14.140 -0.1512E-79  0.3600E+02
  14.150 -0.1512E-79  0.3600E+02
  14.160 -0.1513E-79  0.3600E+02
  14.170 -0.1513E-79  0.3600E+02
  14.180 -0.1514E-79  0.3600E+02
  14.190 -0.1514E-79  0.3600E+02
  14.200 -0.1515E-79  0.3600E+02
  14.210 -0.1515E-79  0.3600E+02
  14.220 -0.1516E-79  0.3600E+02
  14.230 -0.1516E-79  0.3600E+02
  14.240 -0.1517E-79  0.3600E+02
  14.250 -0.1517E-79  0.3600E+02
  14.260 -0.1518E-79  0.3600E+02
  14.270 -0.1518E-79  0.3600E+02
  14.280 -0.1519E-79  0.3600E+02
  14.290 -0.1519E-79  0.3600E+02
  14.300 -0.1520E-79  0.3600E+02
  14.310 -0.1520E-79  0.3600E+02
  14.320 -0.1521E-79  0.3600E+02
  14.330 -0.1521E-79  0.3600E+02
  14.340 -0.1522E-79  0.3600E+02
  14.350 -0.1522E-79  0.3600E+02
  14.360 -0.1523E-79  0.3600E+02
  14.370 -0.1523E-79  0.3600E+02
  14.380 -0.1524E-79  0.3600E+02
  14.390 -0.1524E-79  0.3600E+02
  14.400 -0.1525E-79  0.3600E+02
  14.410 -0.1525E-79  0.3600E+02
  14.420 -0.1526E-79  0.3600E+02
  14.430 -0.1526E-79  0.3600E+02
  14.440 -0.1527E-79  0.3600E+02
  14.450 -0.1527E-79  0.3600E+02
  14.460 -0.1528E-79  0.3600E+02
  14.470 -0.1528E-79  0.3600E+02
  14.480 -0.1529E-79  0.3600E+02
  14.490 -0.1529E-79  0.3600E+02
  14.500 -0.1530E-79  0.3600E+02
  14.510 -0.1530E-79  0.3600E+02
  14.520 -0.1531E-79  0.3600E+02
  14.530 -0.1531E-79  0.3600E+02
  14.540 -0.1532E-79  0.3600E+02
  14.550 -0.1532E-79  0.3600E+02
  14.560 -0.1533E-79  0.3600E+02
  14.570 -0.1533E-79  0.3600E+02
  14.580 -0.1534E-79  0.3600E+02
  14.590 -0.1534E-79  0.3600E+02
  14.600 -0.1535E-79  0.3600E+02
  14.610 -0.1535E-79  0.3600E+02
  14.620 -0.1536E-79  0.3600E+02
  14.630 -0.1536E-79  0.3600E+02
  14.640 -0.1537E-79  0.3600E+02
  14.650 -0.1537E-79  0.3600E+02
  14.660 -0.1538E-79  0.3600E+02
  14.670 -0.1538E-79  0.3600E+02
  14.680 -0.1539E-79  0.3600E+02
  14.690 -0.1539E-79  0.3600E+02
  14.700 -0.1540E-79  0.3600E+02
  14.710 -0.1540E-79  0.3600E+02
  14.720 -0.1541E-79  0.3600E+02
  14.730 -0.1541E-79  0.3600E+02
  14.740 -0.1542E-79  0.3600E+02
  14.750 -0.1542E-79  0.3600E+02
  14.760 -0.1543E-79  0.3600E+02
  14.770 -0.1543E-79  0.3600E+02
  14.780 -0.1544E-79  0.3600E+02
  14.790 -0.1544E-79  0.3600E+02
  14.800 -0.1545E-79  0.3600E+02
  14.810 -0.1545E-79  0.3600E+02
  14.820 -0.1546E-79  0.3600E+02
  14.830 -0.1546E-79  0.3600E+02
  14.840 -0.1547E-79  0.3600E+02
  14.850 -0.1547E-79  0.3600E+02
  14.860 -0.1548E-79  0.3600E+02
  14.870 -0.1548E-79  0.3600E+02
  14.880 -0.1549E-79  0.3600E+02
  14.890 -0.1549E-79  0.3600E+02
  14.900 -0.1550E-79  0.3600E+02
  14.910 -0.1550E-79  0.3600E+02
  14.920 -0.1551E-79  0.3600E+02
  14.930 -0.1551E-79  0.3600E+02
  14.940 -0.1552E-79  0.3600E+02
  14.950 -0.1552E-79  0.3600E+02
  14.960 -0.1553E-79  0.3600E+02
  14.970 -0.1553E-79  0.3600E+02
  14.980 -0.1554E-79  0.3600E+02
  14.990 -0.1554E-79  0.3600E+02
  15.000 -0.1555E-79  0.3600E+02
  15.010 -0.1555E-79  0.3600E+02
  15.020 -0.1556E-79  0.3600E+02
  15.030 -0.1556E-79  0.3600E+02
  15.040 -0.1557E-79  0.3600E+02
  15.050 -0.1557E-79  0.3600E+02
  15.060 -0.1558E-79  0.3600E+02
  15.070 -0.1558E-79  0.3600E+02
  15.080 -0.1559E-79  0.3600E+02
  15.090 -0.1559E-79  0.3600E+02
  15.100 -0.1560E-79  0.3600E+02
  15.110 -0.1560E-79  0.3600E+02
  15.120 -0.1561E-79  0.3600E+02
  15.130 -0.1561E-79  0.3600E+02
  15.140 -0.1562E-79  0.3600E+02
  15.150 -0.1562E-79  0.3600E+02
  15.160 -0.1563E-79  0.3600E+02
  15.170 -0.1563E-79  0.3600E+02
  15.180 -0.1564E-79  0.3600E+02
  15.190 -0.1564E-79  0.3600E+02
  15.200 -0.1565E-79  0.3600E+02
  15.210 -0.1565E-79  0.3600E+02
  15.220 -0.1566E-79  0.3600E+02
  15.230 -0.1566E-79  0.3600E+02
  15.240 -0.1567E-79  0.3600E+02
  15.250 -0.1567E-79  0.3600E+02
  15.260 -0.1568E-79  0.3600E+02
  15.270 -0.1568E-79  0.3600E+02
  15.280 -0.1569E-79  0.3600E+02
  15.290 -0.1569E-79  0.3600E+02
  15.300 -0.1570E-79  0.3600E+02
  15.310 -0.1570E-79  0.3600E+02
  15.320 -0.1571E-79  0.3600E+02
  15.330 -0.1571E-79  0.3600E+02
  15.340 -0.1572E-79  0.3600E+02
  15.350 -0.1572E-79  0.3600E+02
  15.360 -0.1573E-79  0.3600E+02
  15.370 -0.1573E-79  0.3600E+02
  15.380 -0.1574E-79  0.3600E+02
  15.390 -0.1574E-79  0.3600E+02
  15.400 -0.1575E-79  0.3600E+02
  15.410 -0.1575E-79  0.3600E+02
  15.420 -0.1576E-79  0.3600E+02
  15.430 -0.1576E-79  0.3600E+02
  15.440 -0.1577E-79  0.3600E+02
  15.450 -0.1577E-79  0.3600E+02
  15.460 -0.1578E-79  0.3600E+02
  15.470 -0.1578E-79  0.3600E+02
  15.480 -0.1579E-79  0.3600E+02
  15.490 -0.1579E-79  0.3600E+02
  15.500 -0.1580E-79  0.3600E+02
  15.510 -0.1580E-79  0.3600E+02
  15.520 -0.1581E-79  0.3600E+02
  15.530 -0.1581E-79  0.3600E+02
  15.540 -0.1582E-79  0.3600E+02
  15.550 -0.1582E-79  0.3600E+02
  15.560 -0.1583E-79  0.3600E+02
  15.570 -0.1583E-79  0.3600E+02
  15.580 -0.1584E-79  0.3600E+02
  15.590 -0.1584E-79  0.3600E+02
  15.600 -0.1585E-79  0.3600E+02
  15.610 -0.1585E-79  0.3600E+02
  15.620 -0.1586E-79  0.3600E+02
  15.630 -0.1586E-79  0.3600E+02
  15.640 -0.1587E-79  0.3600E+02
  15.650 -0.1587E-79  0.3600E+02
  15.660 -0.1588E-79  0.3600E+02
  15.670 -0.1588E-79  0.3600E+02
  15.680 -0.1589E-79  0.3600E+02
  15.690 -0.1589E-79  0.3600E+02
  15.700 -0.1590E-79  0.3600E+02
  15.710 -0.1590E-79  0.3600E+02
  15.720 -0.1591E-79  0.3600E+02
  15.730 -0.1591E-79  0.3600E+02
  15.740 -0.1592E-79  0.3600E+02
  15.750 -0.1592E-79  0.3600E+02
  15.760 -0.1593E-79  0.3600E+02
  15.770 -0.1593E-79  0.3600E+02
  15.780 -0.1594E-79  0.3600E+02
  15.790 -0.1594E-79  0.3600E+02
  15.800 -0.1595E-79  0.3600E+02
  15.810 -0.1595E-79  0.3600E+02
  15.820 -0.1596E-79  0.3600E+02
  15.830 -0.1596E-79  0.3600E+02
  15.840 -0.1597E-79  0.3600E+02
  15.850 -0.1597E-79  0.3600E+02
  15.860 -0.1598E-79  0.3600E+02
  15.870 -0.1598E-79  0.3600E+02
  15.880 -0.1599E-79  0.3600E+02
  15.890 -0.1599E-79  0.3600E+02
  15.900 -0.1600E-79  0.3600E+02
  15.910 -0.1600E-79  0.3600E+02
  15.920 -0.1601E-79  0.3600E+02
  15.930 -0.1601E-79  0.3600E+02
  15.940 -0.1602E-79  0.3600E+02
  15.950 -0.1602E-79  0.3600E+02
  15.960 -0.1603E-79  0.3600E+02
  15.970 -0.1603E-79  0.3600E+02
  15.980 -0.1604E-79  0.3600E+02
  15.990 -0.1604E-79  0.3600E+02
  16.000 -0.1605E-79  0.3600E+02
