#  E (eV)   dos(E)     Int dos(E) EFermi =    2.921 eV
  -9.000  0.1538E-80  0.1538E-82
  -8.990  0.1533E-80  0.3071E-82
  -8.980  0.1528E-80  0.4599E-82
  -8.970  0.1523E-80  0.6122E-82
  -8.960  0.1518E-80  0.7641E-82
  -8.950  0.1513E-80  0.9154E-82
  -8.940  0.1508E-80  0.1066E-81
  -8.930  0.1503E-80  0.1216E-81
  -8.920  0.1498E-80  0.1366E-81
  -8.910  0.1493E-80  0.1516E-81
  -8.900  0.1488E-80  0.1664E-81
  -8.890  0.1483E-80  0.1813E-81
  -8.880  0.1478E-80  0.1960E-81
  -8.870  0.1473E-80  0.2108E-81
  -8.860  0.1468E-80  0.2255E-81
  -8.850  0.1463E-80  0.2401E-81
  -8.840  0.1458E-80  0.2547E-81
  -8.830  0.1453E-80  0.2692E-81
  -8.820  0.1448E-80  0.2837E-81
  -8.810  0.1443E-80  0.2981E-81
  -8.800  0.1438E-80  0.3125E-81
  -8.790  0.1433E-80  0.3268E-81
  -8.780  0.1428E-80  0.3411E-81
  -8.770  0.1423E-80  0.3553E-81
  -8.760  0.1418E-80  0.3695E-81
  -8.750  0.1413E-80  0.3836E-81
  -8.740  0.1408E-80  0.3977E-81
  -8.730  0.1403E-80  0.4117E-81
  -8.720  0.1398E-80  0.4257E-81
  -8.710  0.1393E-80  0.4396E-81
  -8.700  0.1388E-80  0.4535E-81
  -8.690  0.1383E-80  0.4673E-81
  -8.680  0.1378E-80  0.4811E-81
  -8.670  0.1373E-80  0.4949E-81
  -8.660  0.1368E-80  0.5085E-81
  -8.650  0.1363E-80  0.5222E-81
  -8.640  0.1358E-80  0.5357E-81
  -8.630  0.1353E-80  0.5493E-81
  -8.620  0.1348E-80  0.5627E-81
  -8.610  0.1343E-80  0.5762E-81
  -8.600  0.1338E-80  0.5895E-81
  -8.590  0.1333E-80  0.6029E-81
  -8.580  0.1328E-80  0.6161E-81
  -8.570  0.1323E-80  0.6294E-81
  -8.560  0.1318E-80  0.6426E-81
  -8.550  0.1313E-80  0.6557E-81
  -8.540  0.1308E-80  0.6688E-81
  -8.530  0.1303E-80  0.6818E-81
  -8.520  0.1298E-80  0.6948E-81
  -8.510  0.1293E-80  0.7077E-81
  -8.500  0.1288E-80  0.7206E-81
  -8.490  0.1283E-80  0.7334E-81
  -8.480  0.1278E-80  0.7462E-81
  -8.470  0.1273E-80  0.7589E-81
  -8.460  0.1268E-80  0.7716E-81
  -8.450  0.1263E-80  0.7842E-81
  -8.440  0.1258E-80  0.7968E-81
  -8.430  0.1253E-80  0.8093E-81
  -8.420  0.1248E-80  0.8218E-81
  -8.410  0.1243E-80  0.8342E-81
  -8.400  0.1237E-80  0.8466E-81
  -8.390  0.1232E-80  0.8589E-81
  -8.380  0.1227E-80  0.8712E-81
  -8.370  0.1222E-80  0.8834E-81
  -8.360  0.1217E-80  0.8956E-81
  -8.350  0.1212E-80  0.9077E-81
  -8.340  0.1207E-80  0.9198E-81
  -8.330  0.1202E-80  0.9318E-81
  -8.320  0.1197E-80  0.9438E-81
  -8.310  0.1192E-80  0.9557E-81
  -8.300  0.1187E-80  0.9676E-81
  -8.290  0.1182E-80  0.9794E-81
  -8.280  0.1177E-80  0.9912E-81
  -8.270  0.1172E-80  0.1003E-80
  -8.260  0.1167E-80  0.1015E-80
  -8.250  0.1162E-80  0.1026E-80
  -8.240  0.1157E-80  0.1038E-80
  -8.230  0.1152E-80  0.1049E-80
  -8.220  0.1147E-80  0.1061E-80
  -8.210  0.1142E-80  0.1072E-80
  -8.200  0.1137E-80  0.1084E-80
  -8.190  0.1132E-80  0.1095E-80
  -8.180  0.1127E-80  0.1106E-80
  -8.170  0.1122E-80  0.1117E-80
  -8.160  0.1117E-80  0.1129E-80
  -8.150  0.1112E-80  0.1140E-80
  -8.140  0.1107E-80  0.1151E-80
  -8.130  0.1102E-80  0.1162E-80
  -8.120  0.1097E-80  0.1173E-80
  -8.110  0.1092E-80  0.1184E-80
  -8.100  0.1087E-80  0.1195E-80
  -8.090  0.1082E-80  0.1205E-80
  -8.080  0.1077E-80  0.1216E-80
  -8.070  0.1072E-80  0.1227E-80
  -8.060  0.1067E-80  0.1237E-80
  -8.050  0.1062E-80  0.1248E-80
  -8.040  0.1057E-80  0.1259E-80
  -8.030  0.1052E-80  0.1269E-80
  -8.020  0.1047E-80  0.1280E-80
  -8.010  0.1042E-80  0.1290E-80
  -8.000  0.1037E-80  0.1300E-80
  -7.990  0.1032E-80  0.1311E-80
  -7.980  0.1027E-80  0.1321E-80
  -7.970  0.1022E-80  0.1331E-80
  -7.960  0.1017E-80  0.1341E-80
  -7.950  0.1012E-80  0.1352E-80
  -7.940  0.1007E-80  0.1362E-80
  -7.930  0.1002E-80  0.1372E-80
  -7.920  0.9970E-81  0.1382E-80
  -7.910  0.9920E-81  0.1392E-80
  -7.900  0.9870E-81  0.1401E-80
  -7.890  0.9820E-81  0.1411E-80
  -7.880  0.9769E-81  0.1421E-80
  -7.870  0.9719E-81  0.1431E-80
  -7.860  0.9669E-81  0.1440E-80
  -7.850  0.9619E-81  0.1450E-80
  -7.840  0.9569E-81  0.1460E-80
  -7.830  0.9519E-81  0.1469E-80
  -7.820  0.9469E-81  0.1479E-80
  -7.810  0.9419E-81  0.1488E-80
  -7.800  0.9369E-81  0.1497E-80
  -7.790  0.9319E-81  0.1507E-80
  -7.780  0.9268E-81  0.1516E-80
  -7.770  0.9218E-81  0.1525E-80
  -7.760  0.9168E-81  0.1534E-80
  -7.750  0.9118E-81  0.1543E-80
  -7.740  0.9068E-81  0.1553E-80
  -7.730  0.9018E-81  0.1562E-80
  -7.720  0.8968E-81  0.1571E-80
  -7.710  0.8918E-81  0.1579E-80
  -7.700  0.8868E-81  0.1588E-80
  -7.690  0.8817E-81  0.1597E-80
  -7.680  0.8767E-81  0.1606E-80
  -7.670  0.8717E-81  0.1615E-80
  -7.660  0.8667E-81  0.1623E-80
  -7.650  0.8617E-81  0.1632E-80
  -7.640  0.8567E-81  0.1640E-80
  -7.630  0.8517E-81  0.1649E-80
  -7.620  0.8467E-81  0.1657E-80
  -7.610  0.8417E-81  0.1666E-80
  -7.600  0.8367E-81  0.1674E-80
  -7.590  0.8316E-81  0.1683E-80
  -7.580  0.8266E-81  0.1691E-80
  -7.570  0.8216E-81  0.1699E-80
  -7.560  0.8166E-81  0.1707E-80
  -7.550  0.8116E-81  0.1715E-80
  -7.540  0.8066E-81  0.1723E-80
  -7.530  0.8016E-81  0.1731E-80
  -7.520  0.7966E-81  0.1739E-80
  -7.510  0.7916E-81  0.1747E-80
  -7.500  0.7865E-81  0.1755E-80
  -7.490  0.7815E-81  0.1763E-80
  -7.480  0.7765E-81  0.1771E-80
  -7.470  0.7715E-81  0.1778E-80
  -7.460  0.7665E-81  0.1786E-80
  -7.450  0.7615E-81  0.1794E-80
  -7.440  0.7565E-81  0.1801E-80
  -7.430  0.7515E-81  0.1809E-80
  -7.420  0.7465E-81  0.1816E-80
  -7.410  0.7415E-81  0.1824E-80
  -7.400  0.7364E-81  0.1831E-80
  -7.390  0.7314E-81  0.1838E-80
  -7.380  0.7264E-81  0.1846E-80
  -7.370  0.7214E-81  0.1853E-80
  -7.360  0.7164E-81  0.1860E-80
  -7.350  0.7114E-81  0.1867E-80
  -7.340  0.7064E-81  0.1874E-80
  -7.330  0.7014E-81  0.1881E-80
  -7.320  0.6964E-81  0.1888E-80
  -7.310  0.6913E-81  0.1895E-80
  -7.300  0.6863E-81  0.1902E-80
  -7.290  0.6813E-81  0.1909E-80
  -7.280  0.6763E-81  0.1915E-80
  -7.270  0.6713E-81  0.1922E-80
  -7.260  0.6663E-81  0.1929E-80
  -7.250  0.6613E-81  0.1935E-80
  -7.240  0.6563E-81  0.1942E-80
  -7.230  0.6513E-81  0.1949E-80
  -7.220  0.6463E-81  0.1955E-80
  -7.210  0.6412E-81  0.1961E-80
  -7.200  0.6362E-81  0.1968E-80
  -7.190  0.6312E-81  0.1974E-80
  -7.180  0.6262E-81  0.1980E-80
  -7.170  0.6212E-81  0.1987E-80
  -7.160  0.6162E-81  0.1993E-80
  -7.150  0.6112E-81  0.1999E-80
  -7.140  0.6062E-81  0.2005E-80
  -7.130  0.6012E-81  0.2011E-80
  -7.120  0.5961E-81  0.2017E-80
  -7.110  0.5911E-81  0.2023E-80
  -7.100  0.5861E-81  0.2029E-80
  -7.090  0.5811E-81  0.2034E-80
  -7.080  0.5761E-81  0.2040E-80
  -7.070  0.5711E-81  0.2046E-80
  -7.060  0.5661E-81  0.2052E-80
  -7.050  0.5611E-81  0.2057E-80
  -7.040  0.5561E-81  0.2063E-80
  -7.030  0.5511E-81  0.2068E-80
  -7.020  0.5460E-81  0.2074E-80
  -7.010  0.5410E-81  0.2079E-80
  -7.000  0.5360E-81  0.2085E-80
  -6.990  0.5310E-81  0.2090E-80
  -6.980  0.5260E-81  0.2095E-80
  -6.970  0.5210E-81  0.2100E-80
  -6.960  0.5160E-81  0.2105E-80
  -6.950  0.5110E-81  0.2111E-80
  -6.940  0.5060E-81  0.2116E-80
  -6.930  0.5009E-81  0.2121E-80
  -6.920  0.4959E-81  0.2126E-80
  -6.910  0.4909E-81  0.2131E-80
  -6.900  0.4859E-81  0.2135E-80
  -6.890  0.4809E-81  0.2140E-80
  -6.880  0.4759E-81  0.2145E-80
  -6.870  0.4709E-81  0.2150E-80
  -6.860  0.4659E-81  0.2154E-80
  -6.850  0.4609E-81  0.2159E-80
  -6.840  0.4559E-81  0.2163E-80
  -6.830  0.4508E-81  0.2168E-80
  -6.820  0.4458E-81  0.2172E-80
  -6.810  0.4408E-81  0.2177E-80
  -6.800  0.4358E-81  0.2181E-80
  -6.790  0.4308E-81  0.2186E-80
  -6.780  0.4258E-81  0.2190E-80
  -6.770  0.4208E-81  0.2194E-80
  -6.760  0.4158E-81  0.2198E-80
  -6.750  0.4108E-81  0.2202E-80
  -6.740  0.4057E-81  0.2206E-80
  -6.730  0.4007E-81  0.2210E-80
  -6.720  0.3957E-81  0.2214E-80
  -6.710  0.3907E-81  0.2218E-80
  -6.700  0.3857E-81  0.2222E-80
  -6.690  0.3807E-81  0.2226E-80
  -6.680  0.3757E-81  0.2230E-80
  -6.670  0.3707E-81  0.2233E-80
  -6.660  0.3657E-81  0.2237E-80
  -6.650  0.3607E-81  0.2241E-80
  -6.640  0.3556E-81  0.2244E-80
  -6.630  0.3506E-81  0.2248E-80
  -6.620  0.3456E-81  0.2251E-80
  -6.610  0.3406E-81  0.2254E-80
  -6.600  0.3356E-81  0.2258E-80
  -6.590  0.3306E-81  0.2261E-80
  -6.580  0.3256E-81  0.2264E-80
  -6.570  0.3206E-81  0.2268E-80
  -6.560  0.3156E-81  0.2271E-80
  -6.550  0.3105E-81  0.2274E-80
  -6.540  0.3055E-81  0.2277E-80
  -6.530  0.3005E-81  0.2280E-80
  -6.520  0.2955E-81  0.2283E-80
  -6.510  0.2905E-81  0.2286E-80
  -6.500  0.2855E-81  0.2289E-80
  -6.490  0.2805E-81  0.2291E-80
  -6.480  0.2755E-81  0.2294E-80
  -6.470  0.2705E-81  0.2297E-80
  -6.460  0.2655E-81  0.2300E-80
  -6.450  0.2604E-81  0.2302E-80
  -6.440  0.2554E-81  0.2305E-80
  -6.430  0.2504E-81  0.2307E-80
  -6.420  0.2454E-81  0.2310E-80
  -6.410  0.2404E-81  0.2312E-80
  -6.400  0.2354E-81  0.2314E-80
  -6.390  0.2304E-81  0.2317E-80
  -6.380  0.2254E-81  0.2319E-80
  -6.370  0.2204E-81  0.2321E-80
  -6.360  0.2153E-81  0.2323E-80
  -6.350  0.2103E-81  0.2325E-80
  -6.340  0.2053E-81  0.2328E-80
  -6.330  0.2003E-81  0.2330E-80
  -6.320  0.1953E-81  0.2331E-80
  -6.310  0.1903E-81  0.2333E-80
  -6.300  0.1853E-81  0.2335E-80
  -6.290  0.1803E-81  0.2337E-80
  -6.280  0.1753E-81  0.2339E-80
  -6.270  0.1703E-81  0.2340E-80
  -6.260  0.1652E-81  0.2342E-80
  -6.250  0.1602E-81  0.2344E-80
  -6.240  0.1552E-81  0.2345E-80
  -6.230  0.1502E-81  0.2347E-80
  -6.220  0.1452E-81  0.2348E-80
  -6.210  0.1402E-81  0.2350E-80
  -6.200  0.1352E-81  0.2351E-80
  -6.190  0.1302E-81  0.2352E-80
  -6.180  0.1252E-81  0.2354E-80
  -6.170  0.1201E-81  0.2355E-80
  -6.160  0.1151E-81  0.2356E-80
  -6.150  0.1101E-81  0.2357E-80
  -6.140  0.1051E-81  0.2358E-80
  -6.130  0.1001E-81  0.2359E-80
  -6.120  0.9510E-82  0.2360E-80
  -6.110  0.9009E-82  0.2361E-80
  -6.100  0.8508E-82  0.2362E-80
  -6.090  0.8007E-82  0.2363E-80
  -6.080  0.7506E-82  0.2363E-80
  -6.070  0.7004E-82  0.2364E-80
  -6.060  0.6503E-82  0.2365E-80
  -6.050  0.6002E-82  0.2365E-80
  -6.040  0.5501E-82  0.2366E-80
  -6.030  0.5000E-82  0.2366E-80
  -6.020  0.4499E-82  0.2367E-80
  -6.010  0.3998E-82  0.2367E-80
  -6.000  0.3497E-82  0.2368E-80
  -5.990  0.2996E-82  0.2368E-80
  -5.980  0.2495E-82  0.2368E-80
  -5.970  0.1994E-82  0.2368E-80
  -5.960  0.1493E-82  0.2368E-80
  -5.950  0.9919E-83  0.2369E-80
  -5.940  0.4908E-83  0.2369E-80
  -5.930 -0.1025E-84  0.2369E-80
  -5.920 -0.5113E-83  0.2369E-80
  -5.910 -0.1012E-82  0.2368E-80
  -5.900 -0.1513E-82  0.2368E-80
  -5.890 -0.2014E-82  0.2368E-80
  -5.880 -0.2516E-82  0.2368E-80
  -5.870 -0.3017E-82  0.2367E-80
  -5.860 -0.3518E-82  0.2367E-80
  -5.850 -0.4019E-82  0.2367E-80
  -5.840 -0.4520E-82  0.2366E-80
  -5.830 -0.5021E-82  0.2366E-80
  -5.820 -0.5522E-82  0.2365E-80
  -5.810 -0.6023E-82  0.2365E-80
  -5.800 -0.6524E-82  0.2364E-80
  -5.790 -0.7025E-82  0.2363E-80
  -5.780 -0.7526E-82  0.2363E-80
  -5.770 -0.8027E-82  0.2362E-80
  -5.760 -0.8528E-82  0.2361E-80
  -5.750 -0.9029E-82  0.2360E-80
  -5.740 -0.9530E-82  0.2359E-80
  -5.730 -0.1003E-81  0.2358E-80
  -5.720 -0.1053E-81  0.2357E-80
  -5.710 -0.1103E-81  0.2356E-80
  -5.700 -0.1153E-81  0.2355E-80
  -5.690 -0.1204E-81  0.2353E-80
  -5.680 -0.1254E-81  0.2352E-80
  -5.670 -0.1304E-81  0.2351E-80
  -5.660 -0.1354E-81  0.2350E-80
  -5.650 -0.1404E-81  0.2348E-80
  -5.640 -0.1454E-81  0.2347E-80
  -5.630 -0.1504E-81  0.2345E-80
  -5.620 -0.1554E-81  0.2344E-80
  -5.610 -0.1604E-81  0.2342E-80
  -5.600 -0.1654E-81  0.2340E-80
  -5.590 -0.1705E-81  0.2339E-80
  -5.580 -0.1755E-81  0.2337E-80
  -5.570 -0.1805E-81  0.2335E-80
  -5.560 -0.1855E-81  0.2333E-80
  -5.550 -0.1905E-81  0.2331E-80
  -5.540 -0.1955E-81  0.2329E-80
  -5.530 -0.2005E-81  0.2327E-80
  -5.520 -0.2055E-81  0.2325E-80
  -5.510 -0.2105E-81  0.2323E-80
  -5.500 -0.2156E-81  0.2321E-80
  -5.490 -0.2206E-81  0.2319E-80
  -5.480 -0.2256E-81  0.2317E-80
  -5.470 -0.2306E-81  0.2314E-80
  -5.460 -0.2356E-81  0.2312E-80
  -5.450 -0.2406E-81  0.2310E-80
  -5.440 -0.2456E-81  0.2307E-80
  -5.430 -0.2506E-81  0.2305E-80
  -5.420 -0.2556E-81  0.2302E-80
  -5.410 -0.2606E-81  0.2299E-80
  -5.400 -0.2657E-81  0.2297E-80
  -5.390 -0.2707E-81  0.2294E-80
  -5.380 -0.2757E-81  0.2291E-80
  -5.370 -0.2807E-81  0.2289E-80
  -5.360 -0.2857E-81  0.2286E-80
  -5.350 -0.2907E-81  0.2283E-80
  -5.340 -0.2957E-81  0.2280E-80
  -5.330 -0.3007E-81  0.2277E-80
  -5.320 -0.3057E-81  0.2274E-80
  -5.310 -0.3108E-81  0.2271E-80
  -5.300 -0.3158E-81  0.2267E-80
  -5.290 -0.3208E-81  0.2264E-80
  -5.280 -0.3258E-81  0.2261E-80
  -5.270 -0.3308E-81  0.2258E-80
  -5.260 -0.3358E-81  0.2254E-80
  -5.250 -0.3408E-81  0.2251E-80
  -5.240 -0.3458E-81  0.2247E-80
  -5.230 -0.3508E-81  0.2244E-80
  -5.220 -0.3558E-81  0.2240E-80
  -5.210 -0.3609E-81  0.2237E-80
  -5.200 -0.3659E-81  0.2233E-80
  -5.190 -0.3709E-81  0.2229E-80
  -5.180 -0.3759E-81  0.2226E-80
  -5.170 -0.3809E-81  0.2222E-80
  -5.160 -0.3859E-81  0.2218E-80
  -5.150 -0.3909E-81  0.2214E-80
  -5.140 -0.3959E-81  0.2210E-80
  -5.130 -0.4009E-81  0.2206E-80
  -5.120 -0.4060E-81  0.2202E-80
  -5.110 -0.4110E-81  0.2198E-80
  -5.100 -0.4160E-81  0.2194E-80
  -5.090 -0.4210E-81  0.2190E-80
  -5.080 -0.4260E-81  0.2185E-80
  -5.070 -0.4310E-81  0.2181E-80
  -5.060 -0.4360E-81  0.2177E-80
  -5.050 -0.4410E-81  0.2172E-80
  -5.040 -0.4460E-81  0.2168E-80
  -5.030 -0.4510E-81  0.2163E-80
  -5.020 -0.4561E-81  0.2159E-80
  -5.010 -0.4611E-81  0.2154E-80
  -5.000 -0.4661E-81  0.2149E-80
  -4.990 -0.4711E-81  0.2145E-80
  -4.980 -0.4761E-81  0.2140E-80
  -4.970 -0.4811E-81  0.2135E-80
  -4.960 -0.4861E-81  0.2130E-80
  -4.950 -0.4911E-81  0.2125E-80
  -4.940 -0.4961E-81  0.2120E-80
  -4.930 -0.5012E-81  0.2115E-80
  -4.920 -0.5062E-81  0.2110E-80
  -4.910 -0.5112E-81  0.2105E-80
  -4.900 -0.5162E-81  0.2100E-80
  -4.890 -0.5212E-81  0.2095E-80
  -4.880 -0.5262E-81  0.2090E-80
  -4.870 -0.5312E-81  0.2084E-80
  -4.860 -0.5362E-81  0.2079E-80
  -4.850 -0.5412E-81  0.2074E-80
  -4.840 -0.5462E-81  0.2068E-80
  -4.830 -0.5513E-81  0.2063E-80
  -4.820 -0.5563E-81  0.2057E-80
  -4.810 -0.5613E-81  0.2051E-80
  -4.800 -0.5663E-81  0.2046E-80
  -4.790 -0.5713E-81  0.2040E-80
  -4.780 -0.5763E-81  0.2034E-80
  -4.770 -0.5813E-81  0.2028E-80
  -4.760 -0.5863E-81  0.2023E-80
  -4.750 -0.5913E-81  0.2017E-80
  -4.740 -0.5964E-81  0.2011E-80
  -4.730 -0.6014E-81  0.2005E-80
  -4.720 -0.6064E-81  0.1999E-80
  -4.710 -0.6114E-81  0.1992E-80
  -4.700 -0.6164E-81  0.1986E-80
  -4.690 -0.6214E-81  0.1980E-80
  -4.680 -0.6264E-81  0.1974E-80
  -4.670 -0.6314E-81  0.1968E-80
  -4.660 -0.6364E-81  0.1961E-80
  -4.650 -0.6414E-81  0.1955E-80
  -4.640 -0.6465E-81  0.1948E-80
  -4.630 -0.6515E-81  0.1942E-80
  -4.620 -0.6565E-81  0.1935E-80
  -4.610 -0.6615E-81  0.1929E-80
  -4.600 -0.6665E-81  0.1922E-80
  -4.590 -0.6715E-81  0.1915E-80
  -4.580 -0.6765E-81  0.1908E-80
  -4.570 -0.6815E-81  0.1902E-80
  -4.560 -0.6865E-81  0.1895E-80
  -4.550 -0.6916E-81  0.1888E-80
  -4.540 -0.6966E-81  0.1881E-80
  -4.530 -0.7016E-81  0.1874E-80
  -4.520 -0.7066E-81  0.1867E-80
  -4.510 -0.7116E-81  0.1860E-80
  -4.500 -0.7166E-81  0.1853E-80
  -4.490 -0.7216E-81  0.1845E-80
  -4.480 -0.7266E-81  0.1838E-80
  -4.470 -0.7316E-81  0.1831E-80
  -4.460 -0.7366E-81  0.1823E-80
  -4.450 -0.7417E-81  0.1816E-80
  -4.440 -0.7467E-81  0.1808E-80
  -4.430 -0.7517E-81  0.1801E-80
  -4.420 -0.7567E-81  0.1793E-80
  -4.410 -0.7617E-81  0.1786E-80
  -4.400 -0.7667E-81  0.1778E-80
  -4.390 -0.7717E-81  0.1770E-80
  -4.380 -0.7767E-81  0.1763E-80
  -4.370 -0.7817E-81  0.1755E-80
  -4.360 -0.7868E-81  0.1747E-80
  -4.350 -0.7918E-81  0.1739E-80
  -4.340 -0.7968E-81  0.1731E-80
  -4.330 -0.8018E-81  0.1723E-80
  -4.320 -0.8068E-81  0.1715E-80
  -4.310 -0.8118E-81  0.1707E-80
  -4.300 -0.8168E-81  0.1699E-80
  -4.290 -0.8218E-81  0.1690E-80
  -4.280 -0.8268E-81  0.1682E-80
  -4.270 -0.8318E-81  0.1674E-80
  -4.260 -0.8369E-81  0.1666E-80
  -4.250 -0.8419E-81  0.1657E-80
  -4.240 -0.8469E-81  0.1649E-80
  -4.230 -0.8519E-81  0.1640E-80
  -4.220 -0.8569E-81  0.1632E-80
  -4.210  0.4453E-77  0.4616E-79
  -4.200  0.9609E-69  0.9609E-71
  -4.190  0.7025E-61  0.7025E-63
  -4.180  0.1740E-53  0.1740E-55
  -4.170  0.1460E-46  0.1460E-48
  -4.160  0.4147E-40  0.4147E-42
  -4.150  0.3990E-34  0.3990E-36
  -4.140  0.1300E-28  0.1300E-30
  -4.130  0.1432E-23  0.1432E-25
  -4.120  0.5341E-19  0.5341E-21
  -4.110  0.6733E-15  0.6733E-17
  -4.100  0.2868E-11  0.2868E-13
  -4.090  0.4123E-08  0.4126E-10
  -4.080  0.2000E-05  0.2004E-07
  -4.070  0.3274E-03  0.3294E-05
  -4.060  0.1812E-01  0.1845E-03
  -4.050  0.3414E+00  0.3599E-02
  -4.040  0.2241E+01  0.2600E-01
  -4.030  0.5638E+01  0.8238E-01
  -4.020  0.7809E+01  0.1605E+00
  -4.010  0.9659E+01  0.2571E+00
  -4.000  0.9569E+01  0.3528E+00
  -3.990  0.6716E+01  0.4199E+00
  -3.980  0.5183E+01  0.4717E+00
  -3.970  0.5593E+01  0.5277E+00
  -3.960  0.4095E+01  0.5686E+00
  -3.950  0.2883E+01  0.5974E+00
  -3.940  0.4589E+01  0.6433E+00
  -3.930  0.4325E+01  0.6866E+00
  -3.920  0.2817E+01  0.7147E+00
  -3.910  0.3262E+01  0.7474E+00
  -3.900  0.2515E+01  0.7725E+00
  -3.890  0.3653E+01  0.8091E+00
  -3.880  0.3541E+01  0.8445E+00
  -3.870  0.2162E+01  0.8661E+00
  -3.860  0.2414E+01  0.8902E+00
  -3.850  0.3180E+01  0.9220E+00
  -3.840  0.2892E+01  0.9509E+00
  -3.830  0.2385E+01  0.9748E+00
  -3.820  0.2252E+01  0.9973E+00
  -3.810  0.2127E+01  0.1019E+01
  -3.800  0.2622E+01  0.1045E+01
  -3.790  0.3035E+01  0.1075E+01
  -3.780  0.2786E+01  0.1103E+01
  -3.770  0.1186E+01  0.1115E+01
  -3.760  0.2106E+01  0.1136E+01
  -3.750  0.2754E+01  0.1163E+01
  -3.740  0.1783E+01  0.1181E+01
  -3.730  0.1680E+01  0.1198E+01
  -3.720  0.3458E+01  0.1233E+01
  -3.710  0.5827E+01  0.1291E+01
  -3.700  0.5973E+01  0.1351E+01
  -3.690  0.3407E+01  0.1385E+01
  -3.680  0.3141E+01  0.1416E+01
  -3.670  0.5434E+01  0.1470E+01
  -3.660  0.8848E+01  0.1559E+01
  -3.650  0.1266E+02  0.1686E+01
  -3.640  0.9856E+01  0.1784E+01
  -3.630  0.6494E+01  0.1849E+01
  -3.620  0.7843E+01  0.1927E+01
  -3.610  0.6457E+01  0.1992E+01
  -3.600  0.3855E+01  0.2031E+01
  -3.590  0.5487E+01  0.2085E+01
  -3.580  0.7867E+01  0.2164E+01
  -3.570  0.7330E+01  0.2237E+01
  -3.560  0.4502E+01  0.2282E+01
  -3.550  0.3737E+01  0.2320E+01
  -3.540  0.4028E+01  0.2360E+01
  -3.530  0.3157E+01  0.2392E+01
  -3.520  0.5011E+01  0.2442E+01
  -3.510  0.7691E+01  0.2519E+01
  -3.500  0.6963E+01  0.2588E+01
  -3.490  0.3588E+01  0.2624E+01
  -3.480  0.2100E+01  0.2645E+01
  -3.470  0.4320E+01  0.2688E+01
  -3.460  0.5732E+01  0.2746E+01
  -3.450  0.4100E+01  0.2787E+01
  -3.440  0.3436E+01  0.2821E+01
  -3.430  0.4129E+01  0.2862E+01
  -3.420  0.4566E+01  0.2908E+01
  -3.410  0.4302E+01  0.2951E+01
  -3.400  0.5814E+01  0.3009E+01
  -3.390  0.7589E+01  0.3085E+01
  -3.380  0.7772E+01  0.3163E+01
  -3.370  0.4889E+01  0.3212E+01
  -3.360  0.3581E+01  0.3248E+01
  -3.350  0.5162E+01  0.3299E+01
  -3.340  0.7713E+01  0.3376E+01
  -3.330  0.8985E+01  0.3466E+01
  -3.320  0.9902E+01  0.3565E+01
  -3.310  0.7734E+01  0.3643E+01
  -3.300  0.5078E+01  0.3693E+01
  -3.290  0.4362E+01  0.3737E+01
  -3.280  0.6672E+01  0.3804E+01
  -3.270  0.6044E+01  0.3864E+01
  -3.260  0.4620E+01  0.3910E+01
  -3.250  0.7952E+01  0.3990E+01
  -3.240  0.8607E+01  0.4076E+01
  -3.230  0.5182E+01  0.4128E+01
  -3.220  0.4026E+01  0.4168E+01
  -3.210  0.5313E+01  0.4221E+01
  -3.200  0.5648E+01  0.4278E+01
  -3.190  0.5217E+01  0.4330E+01
  -3.180  0.5308E+01  0.4383E+01
  -3.170  0.5661E+01  0.4439E+01
  -3.160  0.5173E+01  0.4491E+01
  -3.150  0.4507E+01  0.4536E+01
  -3.140  0.4111E+01  0.4577E+01
  -3.130  0.3232E+01  0.4610E+01
  -3.120  0.5939E+01  0.4669E+01
  -3.110  0.7125E+01  0.4740E+01
  -3.100  0.7858E+01  0.4819E+01
  -3.090  0.1043E+02  0.4923E+01
  -3.080  0.8087E+01  0.5004E+01
  -3.070  0.4405E+01  0.5048E+01
  -3.060  0.5012E+01  0.5098E+01
  -3.050  0.5840E+01  0.5157E+01
  -3.040  0.3516E+01  0.5192E+01
  -3.030  0.3428E+01  0.5226E+01
  -3.020  0.5785E+01  0.5284E+01
  -3.010  0.4178E+01  0.5326E+01
  -3.000  0.1805E+01  0.5344E+01
  -2.990  0.2409E+01  0.5368E+01
  -2.980  0.4431E+01  0.5412E+01
  -2.970  0.6482E+01  0.5477E+01
  -2.960  0.6294E+01  0.5540E+01
  -2.950  0.2704E+01  0.5567E+01
  -2.940  0.4441E+00  0.5571E+01
  -2.930  0.1794E+01  0.5589E+01
  -2.920  0.4817E+01  0.5638E+01
  -2.910  0.5916E+01  0.5697E+01
  -2.900  0.3331E+01  0.5730E+01
  -2.890  0.1140E+01  0.5741E+01
  -2.880  0.7572E+00  0.5749E+01
  -2.870  0.2510E+01  0.5774E+01
  -2.860  0.2948E+01  0.5804E+01
  -2.850  0.2713E+01  0.5831E+01
  -2.840  0.3420E+01  0.5865E+01
  -2.830  0.2212E+01  0.5887E+01
  -2.820  0.1042E+01  0.5897E+01
  -2.810  0.1630E+01  0.5914E+01
  -2.800  0.2207E+01  0.5936E+01
  -2.790  0.1182E+01  0.5948E+01
  -2.780  0.1525E+01  0.5963E+01
  -2.770  0.2406E+01  0.5987E+01
  -2.760  0.3323E+01  0.6020E+01
  -2.750  0.3260E+01  0.6053E+01
  -2.740  0.1719E+01  0.6070E+01
  -2.730 -0.3517E-01  0.6070E+01
  -2.720  0.2090E+00  0.6072E+01
  -2.710  0.1149E+01  0.6083E+01
  -2.700  0.6792E+00  0.6090E+01
  -2.690 -0.2358E-01  0.6090E+01
  -2.680  0.5275E+00  0.6095E+01
  -2.670  0.1211E+01  0.6107E+01
  -2.660  0.4873E+00  0.6112E+01
  -2.650 -0.1317E+00  0.6111E+01
  -2.640  0.1274E+00  0.6112E+01
  -2.630  0.8776E+00  0.6121E+01
  -2.620  0.1124E+01  0.6132E+01
  -2.610  0.1678E+00  0.6134E+01
  -2.600 -0.1296E+00  0.6132E+01
  -2.590  0.2716E+00  0.6135E+01
  -2.580  0.1916E+01  0.6154E+01
  -2.570  0.3585E+01  0.6190E+01
  -2.560  0.1375E+01  0.6204E+01
  -2.550 -0.3556E+00  0.6200E+01
  -2.540  0.2938E+00  0.6203E+01
  -2.530  0.1174E+01  0.6215E+01
  -2.520  0.6839E+00  0.6222E+01
  -2.510 -0.1095E+00  0.6221E+01
  -2.500 -0.8191E-01  0.6220E+01
  -2.490  0.2952E-01  0.6220E+01
  -2.480  0.3765E+00  0.6224E+01
  -2.470  0.1132E+01  0.6235E+01
  -2.460  0.8268E+00  0.6244E+01
  -2.450 -0.4430E-01  0.6243E+01
  -2.440  0.1377E+00  0.6244E+01
  -2.430  0.9624E+00  0.6254E+01
  -2.420  0.1062E+01  0.6265E+01
  -2.410  0.3062E+00  0.6268E+01
  -2.400  0.9063E+00  0.6277E+01
  -2.390  0.1660E+01  0.6293E+01
  -2.380  0.1365E+01  0.6307E+01
  -2.370  0.7851E+00  0.6315E+01
  -2.360  0.1004E+01  0.6325E+01
  -2.350  0.6695E+00  0.6332E+01
  -2.340 -0.8672E-01  0.6331E+01
  -2.330  0.1184E+00  0.6332E+01
  -2.320  0.9106E+00  0.6341E+01
  -2.310  0.1096E+01  0.6352E+01
  -2.300  0.1811E+00  0.6354E+01
  -2.290  0.5370E+00  0.6359E+01
  -2.280  0.2783E+01  0.6387E+01
  -2.270  0.3544E+01  0.6423E+01
  -2.260  0.2846E+01  0.6451E+01
  -2.250  0.6641E+01  0.6517E+01
  -2.240  0.1009E+02  0.6618E+01
  -2.230  0.1195E+02  0.6738E+01
  -2.220  0.1516E+02  0.6889E+01
  -2.210  0.1350E+02  0.7024E+01
  -2.200  0.8735E+01  0.7112E+01
  -2.190  0.7646E+01  0.7188E+01
  -2.180  0.7525E+01  0.7263E+01
  -2.170  0.6822E+01  0.7332E+01
  -2.160  0.7994E+01  0.7412E+01
  -2.150  0.7367E+01  0.7485E+01
  -2.140  0.6815E+01  0.7553E+01
  -2.130  0.6850E+01  0.7622E+01
  -2.120  0.6832E+01  0.7690E+01
  -2.110  0.7408E+01  0.7764E+01
  -2.100  0.9152E+01  0.7856E+01
  -2.090  0.1170E+02  0.7973E+01
  -2.080  0.9267E+01  0.8066E+01
  -2.070  0.4999E+01  0.8116E+01
  -2.060  0.4619E+01  0.8162E+01
  -2.050  0.5667E+01  0.8218E+01
  -2.040  0.6561E+01  0.8284E+01
  -2.030  0.6283E+01  0.8347E+01
  -2.020  0.6833E+01  0.8415E+01
  -2.010  0.6834E+01  0.8483E+01
  -2.000  0.4443E+01  0.8528E+01
  -1.990  0.1187E+01  0.8540E+01
  -1.980  0.2102E+01  0.8561E+01
  -1.970  0.4993E+01  0.8611E+01
  -1.960  0.3820E+01  0.8649E+01
  -1.950  0.2272E+01  0.8672E+01
  -1.940  0.2234E+01  0.8694E+01
  -1.930  0.3515E+01  0.8729E+01
  -1.920  0.5770E+01  0.8787E+01
  -1.910  0.6967E+01  0.8857E+01
  -1.900  0.3440E+01  0.8891E+01
  -1.890  0.1322E+01  0.8904E+01
  -1.880  0.2957E+01  0.8934E+01
  -1.870  0.2688E+01  0.8961E+01
  -1.860  0.2070E+01  0.8981E+01
  -1.850  0.4087E+01  0.9022E+01
  -1.840  0.5707E+01  0.9079E+01
  -1.830  0.3154E+01  0.9111E+01
  -1.820  0.2621E+01  0.9137E+01
  -1.810  0.5198E+01  0.9189E+01
  -1.800  0.4142E+01  0.9230E+01
  -1.790  0.2668E+01  0.9257E+01
  -1.780  0.2907E+01  0.9286E+01
  -1.770  0.4699E+01  0.9333E+01
  -1.760  0.5862E+01  0.9392E+01
  -1.750  0.3125E+01  0.9423E+01
  -1.740  0.1543E+01  0.9438E+01
  -1.730  0.3415E+01  0.9473E+01
  -1.720  0.4303E+01  0.9516E+01
  -1.710  0.1516E+01  0.9531E+01
  -1.700  0.1642E+01  0.9547E+01
  -1.690  0.3519E+01  0.9582E+01
  -1.680  0.3997E+01  0.9622E+01
  -1.670  0.3641E+01  0.9659E+01
  -1.660  0.4288E+01  0.9702E+01
  -1.650  0.6761E+01  0.9769E+01
  -1.640  0.7799E+01  0.9847E+01
  -1.630  0.6625E+01  0.9913E+01
  -1.620  0.7246E+01  0.9986E+01
  -1.610  0.5708E+01  0.1004E+02
  -1.600  0.1879E+01  0.1006E+02
  -1.590  0.3163E+01  0.1009E+02
  -1.580  0.6332E+01  0.1016E+02
  -1.570  0.5215E+01  0.1021E+02
  -1.560  0.3830E+01  0.1025E+02
  -1.550  0.4689E+01  0.1029E+02
  -1.540  0.4101E+01  0.1034E+02
  -1.530  0.3158E+01  0.1037E+02
  -1.520  0.3058E+01  0.1040E+02
  -1.510  0.2643E+01  0.1042E+02
  -1.500  0.3023E+01  0.1045E+02
  -1.490  0.5373E+01  0.1051E+02
  -1.480  0.4834E+01  0.1056E+02
  -1.470  0.3117E+01  0.1059E+02
  -1.460  0.3785E+01  0.1063E+02
  -1.450  0.4576E+01  0.1067E+02
  -1.440  0.2718E+01  0.1070E+02
  -1.430  0.1907E+01  0.1072E+02
  -1.420  0.2565E+01  0.1074E+02
  -1.410  0.2686E+01  0.1077E+02
  -1.400  0.1943E+01  0.1079E+02
  -1.390  0.3580E+01  0.1082E+02
  -1.380  0.5219E+01  0.1088E+02
  -1.370  0.4567E+01  0.1092E+02
  -1.360  0.4312E+01  0.1097E+02
  -1.350  0.5307E+01  0.1102E+02
  -1.340  0.6228E+01  0.1108E+02
  -1.330  0.5764E+01  0.1114E+02
  -1.320  0.7027E+01  0.1121E+02
  -1.310  0.1261E+02  0.1134E+02
  -1.300  0.1088E+02  0.1144E+02
  -1.290  0.6201E+01  0.1151E+02
  -1.280  0.8117E+01  0.1159E+02
  -1.270  0.1389E+02  0.1173E+02
  -1.260  0.2025E+02  0.1193E+02
  -1.250  0.1923E+02  0.1212E+02
  -1.240  0.1507E+02  0.1227E+02
  -1.230  0.1287E+02  0.1240E+02
  -1.220  0.1063E+02  0.1251E+02
  -1.210  0.6871E+01  0.1258E+02
  -1.200  0.6241E+01  0.1264E+02
  -1.190  0.5636E+01  0.1269E+02
  -1.180  0.5436E+01  0.1275E+02
  -1.170  0.4650E+01  0.1279E+02
  -1.160  0.4607E+01  0.1284E+02
  -1.150  0.5165E+01  0.1289E+02
  -1.140  0.6768E+01  0.1296E+02
  -1.130  0.8080E+01  0.1304E+02
  -1.120  0.8735E+01  0.1313E+02
  -1.110  0.8450E+01  0.1321E+02
  -1.100  0.9041E+01  0.1330E+02
  -1.090  0.1008E+02  0.1340E+02
  -1.080  0.7105E+01  0.1348E+02
  -1.070  0.3239E+01  0.1351E+02
  -1.060  0.2271E+01  0.1353E+02
  -1.050  0.3392E+01  0.1356E+02
  -1.040  0.3071E+01  0.1359E+02
  -1.030  0.3344E+01  0.1363E+02
  -1.020  0.4633E+01  0.1367E+02
  -1.010  0.5664E+01  0.1373E+02
  -1.000  0.6459E+01  0.1380E+02
  -0.990  0.5542E+01  0.1385E+02
  -0.980  0.7591E+01  0.1393E+02
  -0.970  0.9822E+01  0.1403E+02
  -0.960  0.6204E+01  0.1409E+02
  -0.950  0.1115E+01  0.1410E+02
  -0.940 -0.4401E+00  0.1409E+02
  -0.930  0.9977E+00  0.1410E+02
  -0.920  0.2815E+01  0.1413E+02
  -0.910  0.4881E+01  0.1418E+02
  -0.900  0.4766E+01  0.1423E+02
  -0.890  0.2779E+01  0.1426E+02
  -0.880  0.3547E+01  0.1429E+02
  -0.870  0.6135E+01  0.1435E+02
  -0.860  0.4446E+01  0.1440E+02
  -0.850  0.2081E+01  0.1442E+02
  -0.840  0.2120E+01  0.1444E+02
  -0.830  0.2501E+01  0.1446E+02
  -0.820  0.3118E+01  0.1450E+02
  -0.810  0.1801E+01  0.1451E+02
  -0.800  0.1527E+01  0.1453E+02
  -0.790  0.4075E+01  0.1457E+02
  -0.780  0.5014E+01  0.1462E+02
  -0.770  0.4078E+01  0.1466E+02
  -0.760  0.3457E+01  0.1470E+02
  -0.750  0.3854E+01  0.1473E+02
  -0.740  0.3397E+01  0.1477E+02
  -0.730  0.2343E+01  0.1479E+02
  -0.720  0.4363E+01  0.1484E+02
  -0.710  0.6456E+01  0.1490E+02
  -0.700  0.5532E+01  0.1496E+02
  -0.690  0.3554E+01  0.1499E+02
  -0.680  0.5620E+01  0.1505E+02
  -0.670  0.1236E+02  0.1517E+02
  -0.660  0.1569E+02  0.1533E+02
  -0.650  0.9791E+01  0.1543E+02
  -0.640  0.6113E+01  0.1549E+02
  -0.630  0.6068E+01  0.1555E+02
  -0.620  0.6582E+01  0.1561E+02
  -0.610  0.6178E+01  0.1567E+02
  -0.600  0.4895E+01  0.1572E+02
  -0.590  0.3282E+01  0.1576E+02
  -0.580  0.1403E+01  0.1577E+02
  -0.570  0.1698E+01  0.1579E+02
  -0.560  0.3188E+01  0.1582E+02
  -0.550  0.4398E+01  0.1586E+02
  -0.540  0.4156E+01  0.1590E+02
  -0.530  0.2616E+01  0.1593E+02
  -0.520  0.4421E+01  0.1598E+02
  -0.510  0.6907E+01  0.1604E+02
  -0.500  0.5723E+01  0.1610E+02
  -0.490  0.2592E+01  0.1613E+02
  -0.480  0.2286E+01  0.1615E+02
  -0.470  0.3543E+01  0.1619E+02
  -0.460  0.4714E+01  0.1623E+02
  -0.450  0.6783E+01  0.1630E+02
  -0.440  0.5234E+01  0.1635E+02
  -0.430  0.8073E+00  0.1636E+02
  -0.420 -0.2431E+00  0.1636E+02
  -0.410  0.1342E+01  0.1637E+02
  -0.400  0.2496E+01  0.1640E+02
  -0.390  0.3790E+01  0.1643E+02
  -0.380  0.5353E+01  0.1649E+02
  -0.370  0.4458E+01  0.1653E+02
  -0.360  0.3435E+01  0.1657E+02
  -0.350  0.5060E+01  0.1662E+02
  -0.340  0.5968E+01  0.1668E+02
  -0.330  0.6204E+01  0.1674E+02
  -0.320  0.4457E+01  0.1678E+02
  -0.310  0.3480E+01  0.1682E+02
  -0.300  0.4442E+01  0.1686E+02
  -0.290  0.4715E+01  0.1691E+02
  -0.280  0.8336E+01  0.1699E+02
  -0.270  0.9554E+01  0.1709E+02
  -0.260  0.5453E+01  0.1714E+02
  -0.250  0.4598E+01  0.1719E+02
  -0.240  0.5115E+01  0.1724E+02
  -0.230  0.6300E+01  0.1730E+02
  -0.220  0.7689E+01  0.1738E+02
  -0.210  0.5436E+01  0.1744E+02
  -0.200  0.8592E+01  0.1752E+02
  -0.190  0.1495E+02  0.1767E+02
  -0.180  0.1199E+02  0.1779E+02
  -0.170  0.9265E+01  0.1788E+02
  -0.160  0.1000E+02  0.1798E+02
  -0.150  0.1100E+02  0.1809E+02
  -0.140  0.1306E+02  0.1822E+02
  -0.130  0.1234E+02  0.1835E+02
  -0.120  0.8618E+01  0.1843E+02
  -0.110  0.5975E+01  0.1849E+02
  -0.100  0.3018E+01  0.1852E+02
  -0.090  0.2664E+01  0.1855E+02
  -0.080  0.5832E+01  0.1861E+02
  -0.070  0.7265E+01  0.1868E+02
  -0.060  0.5133E+01  0.1873E+02
  -0.050  0.2922E+01  0.1876E+02
  -0.040  0.2979E+01  0.1879E+02
  -0.030  0.5419E+01  0.1885E+02
  -0.020  0.6072E+01  0.1891E+02
  -0.010  0.6996E+01  0.1898E+02
  -0.000  0.6742E+01  0.1904E+02
   0.010  0.6291E+01  0.1911E+02
   0.020  0.6991E+01  0.1918E+02
   0.030  0.5294E+01  0.1923E+02
   0.040  0.4859E+01  0.1928E+02
   0.050  0.3168E+01  0.1931E+02
   0.060  0.2511E+01  0.1933E+02
   0.070  0.4545E+01  0.1938E+02
   0.080  0.3984E+01  0.1942E+02
   0.090  0.3839E+01  0.1946E+02
   0.100  0.3554E+01  0.1949E+02
   0.110  0.3919E+01  0.1953E+02
   0.120  0.6031E+01  0.1959E+02
   0.130  0.6151E+01  0.1966E+02
   0.140  0.2896E+01  0.1968E+02
   0.150  0.3776E+01  0.1972E+02
   0.160  0.1086E+02  0.1983E+02
   0.170  0.1908E+02  0.2002E+02
   0.180  0.1407E+02  0.2016E+02
   0.190  0.3093E+01  0.2019E+02
   0.200  0.4843E+00  0.2020E+02
   0.210  0.2978E+01  0.2023E+02
   0.220  0.4493E+01  0.2027E+02
   0.230  0.4607E+01  0.2032E+02
   0.240  0.4613E+01  0.2036E+02
   0.250  0.4965E+01  0.2041E+02
   0.260  0.4409E+01  0.2046E+02
   0.270  0.1351E+01  0.2047E+02
   0.280  0.7861E+00  0.2048E+02
   0.290  0.2924E+01  0.2051E+02
   0.300  0.3586E+01  0.2054E+02
   0.310  0.3303E+01  0.2058E+02
   0.320  0.6032E+01  0.2064E+02
   0.330  0.7348E+01  0.2071E+02
   0.340  0.5061E+01  0.2076E+02
   0.350  0.2567E+01  0.2079E+02
   0.360  0.9009E+00  0.2080E+02
   0.370  0.1193E+01  0.2081E+02
   0.380  0.4125E+01  0.2085E+02
   0.390  0.5901E+01  0.2091E+02
   0.400  0.5239E+01  0.2096E+02
   0.410  0.4169E+01  0.2100E+02
   0.420  0.3042E+01  0.2103E+02
   0.430  0.3313E+01  0.2107E+02
   0.440  0.4438E+01  0.2111E+02
   0.450  0.7229E+01  0.2118E+02
   0.460  0.7518E+01  0.2126E+02
   0.470  0.3812E+01  0.2130E+02
   0.480  0.6571E+01  0.2136E+02
   0.490  0.1536E+02  0.2152E+02
   0.500  0.1349E+02  0.2165E+02
   0.510  0.4024E+01  0.2169E+02
   0.520  0.1615E+01  0.2171E+02
   0.530  0.3963E+01  0.2175E+02
   0.540  0.3321E+01  0.2178E+02
   0.550  0.2215E+01  0.2180E+02
   0.560  0.3050E+01  0.2183E+02
   0.570  0.3473E+01  0.2187E+02
   0.580  0.3195E+01  0.2190E+02
   0.590  0.4500E+01  0.2194E+02
   0.600  0.4949E+01  0.2199E+02
   0.610  0.4512E+01  0.2204E+02
   0.620  0.3475E+01  0.2207E+02
   0.630  0.2776E+01  0.2210E+02
   0.640  0.3275E+01  0.2213E+02
   0.650  0.3873E+01  0.2217E+02
   0.660  0.3192E+01  0.2220E+02
   0.670  0.3473E+01  0.2224E+02
   0.680  0.4819E+01  0.2229E+02
   0.690  0.5938E+01  0.2235E+02
   0.700  0.7172E+01  0.2242E+02
   0.710  0.3646E+01  0.2246E+02
   0.720  0.1334E+01  0.2247E+02
   0.730  0.3229E+01  0.2250E+02
   0.740  0.3668E+01  0.2254E+02
   0.750  0.4054E+01  0.2258E+02
   0.760  0.3454E+01  0.2261E+02
   0.770  0.1064E+01  0.2262E+02
   0.780  0.1496E+01  0.2264E+02
   0.790  0.5274E+01  0.2269E+02
   0.800  0.4204E+01  0.2273E+02
   0.810  0.1048E+01  0.2274E+02
   0.820  0.4084E+01  0.2278E+02
   0.830  0.6145E+01  0.2285E+02
   0.840  0.4779E+01  0.2289E+02
   0.850  0.6139E+01  0.2296E+02
   0.860  0.6839E+01  0.2302E+02
   0.870  0.6394E+01  0.2309E+02
   0.880  0.5474E+01  0.2314E+02
   0.890  0.4565E+01  0.2319E+02
   0.900  0.3485E+01  0.2322E+02
   0.910  0.3105E+01  0.2325E+02
   0.920  0.2479E+01  0.2328E+02
   0.930  0.4060E+01  0.2332E+02
   0.940  0.4712E+01  0.2337E+02
   0.950  0.4515E+01  0.2341E+02
   0.960  0.3839E+01  0.2345E+02
   0.970  0.3295E+01  0.2348E+02
   0.980  0.5105E+01  0.2353E+02
   0.990  0.5795E+01  0.2359E+02
   1.000  0.7135E+01  0.2366E+02
   1.010  0.7001E+01  0.2373E+02
   1.020  0.6609E+01  0.2380E+02
   1.030  0.9639E+01  0.2390E+02
   1.040  0.8881E+01  0.2398E+02
   1.050  0.5420E+01  0.2404E+02
   1.060  0.5229E+01  0.2409E+02
   1.070  0.5456E+01  0.2415E+02
   1.080  0.5232E+01  0.2420E+02
   1.090  0.4552E+01  0.2424E+02
   1.100  0.2324E+01  0.2427E+02
   1.110  0.3134E+01  0.2430E+02
   1.120  0.6676E+01  0.2436E+02
   1.130  0.7486E+01  0.2444E+02
   1.140  0.6160E+01  0.2450E+02
   1.150  0.6442E+01  0.2457E+02
   1.160  0.6079E+01  0.2463E+02
   1.170  0.5049E+01  0.2468E+02
   1.180  0.5135E+01  0.2473E+02
   1.190  0.4134E+01  0.2477E+02
   1.200  0.4512E+01  0.2481E+02
   1.210  0.4443E+01  0.2486E+02
   1.220  0.2119E+01  0.2488E+02
   1.230  0.3707E+01  0.2492E+02
   1.240  0.3960E+01  0.2496E+02
   1.250  0.1346E+01  0.2497E+02
   1.260  0.7275E+00  0.2498E+02
   1.270  0.3152E+01  0.2501E+02
   1.280  0.5881E+01  0.2507E+02
   1.290  0.4325E+01  0.2511E+02
   1.300  0.1748E+01  0.2513E+02
   1.310  0.1710E+01  0.2515E+02
   1.320  0.2089E+01  0.2517E+02
   1.330  0.1816E+01  0.2518E+02
   1.340  0.4444E+01  0.2523E+02
   1.350  0.6376E+01  0.2529E+02
   1.360  0.4079E+01  0.2533E+02
   1.370  0.2726E+01  0.2536E+02
   1.380  0.3374E+01  0.2539E+02
   1.390  0.3385E+01  0.2543E+02
   1.400  0.1921E+01  0.2545E+02
   1.410  0.2281E+01  0.2547E+02
   1.420  0.2980E+01  0.2550E+02
   1.430  0.2784E+01  0.2553E+02
   1.440  0.3216E+01  0.2556E+02
   1.450  0.4097E+01  0.2560E+02
   1.460  0.3906E+01  0.2564E+02
   1.470  0.2020E+01  0.2566E+02
   1.480  0.2401E+01  0.2568E+02
   1.490  0.4574E+01  0.2573E+02
   1.500  0.4748E+01  0.2578E+02
   1.510  0.4010E+01  0.2582E+02
   1.520  0.2278E+01  0.2584E+02
   1.530  0.1601E+01  0.2586E+02
   1.540  0.2881E+01  0.2589E+02
   1.550  0.5945E+01  0.2595E+02
   1.560  0.6891E+01  0.2601E+02
   1.570  0.4196E+01  0.2606E+02
   1.580  0.2366E+01  0.2608E+02
   1.590  0.3527E+01  0.2611E+02
   1.600  0.4700E+01  0.2616E+02
   1.610  0.3764E+01  0.2620E+02
   1.620  0.4613E+01  0.2625E+02
   1.630  0.5666E+01  0.2630E+02
   1.640  0.4993E+01  0.2635E+02
   1.650  0.7713E+01  0.2643E+02
   1.660  0.9998E+01  0.2653E+02
   1.670  0.1272E+02  0.2666E+02
   1.680  0.1140E+02  0.2677E+02
   1.690  0.3595E+01  0.2681E+02
   1.700  0.1154E+01  0.2682E+02
   1.710  0.1441E+01  0.2683E+02
   1.720  0.2398E+01  0.2686E+02
   1.730  0.3692E+01  0.2689E+02
   1.740  0.4639E+01  0.2694E+02
   1.750  0.4475E+01  0.2698E+02
   1.760  0.2994E+01  0.2701E+02
   1.770  0.1873E+01  0.2703E+02
   1.780  0.2061E+01  0.2705E+02
   1.790  0.1499E+01  0.2707E+02
   1.800  0.1582E+01  0.2708E+02
   1.810  0.2402E+01  0.2711E+02
   1.820  0.3737E+01  0.2715E+02
   1.830  0.4212E+01  0.2719E+02
   1.840  0.3926E+01  0.2723E+02
   1.850  0.2907E+01  0.2726E+02
   1.860  0.2314E+01  0.2728E+02
   1.870  0.2333E+01  0.2730E+02
   1.880  0.2648E+01  0.2733E+02
   1.890  0.4628E+01  0.2738E+02
   1.900  0.3203E+01  0.2741E+02
   1.910  0.2526E+01  0.2743E+02
   1.920  0.4732E+01  0.2748E+02
   1.930  0.8855E+01  0.2757E+02
   1.940  0.8439E+01  0.2765E+02
   1.950  0.2907E+01  0.2768E+02
   1.960 -0.6349E+00  0.2768E+02
   1.970 -0.4929E+00  0.2767E+02
   1.980 -0.3079E-02  0.2767E+02
   1.990  0.5805E+00  0.2768E+02
   2.000  0.1927E+01  0.2770E+02
   2.010  0.1906E+01  0.2772E+02
   2.020  0.2134E+00  0.2772E+02
   2.030 -0.2315E+00  0.2771E+02
   2.040  0.8109E-01  0.2772E+02
   2.050  0.8218E+00  0.2772E+02
   2.060  0.1784E+01  0.2774E+02
   2.070  0.1540E+01  0.2776E+02
   2.080  0.4007E+00  0.2776E+02
   2.090  0.1972E+00  0.2776E+02
   2.100  0.1216E+01  0.2778E+02
   2.110  0.1643E+01  0.2779E+02
   2.120  0.1273E+01  0.2780E+02
   2.130  0.1023E+01  0.2781E+02
   2.140  0.1506E+01  0.2783E+02
   2.150  0.1833E+01  0.2785E+02
   2.160  0.2118E+01  0.2787E+02
   2.170  0.2681E+01  0.2790E+02
   2.180  0.4425E+01  0.2794E+02
   2.190  0.5073E+01  0.2799E+02
   2.200  0.1758E+01  0.2801E+02
   2.210 -0.5802E+00  0.2800E+02
   2.220 -0.2624E+00  0.2800E+02
   2.230 -0.2202E-01  0.2800E+02
   2.240 -0.5355E-03  0.2800E+02
   2.250 -0.4122E-05  0.2800E+02
   2.260 -0.1036E-07  0.2800E+02
   2.270 -0.8625E-11  0.2800E+02
   2.280 -0.2395E-14  0.2800E+02
   2.290 -0.2227E-18  0.2800E+02
   2.300 -0.6953E-23  0.2800E+02
   2.310 -0.7303E-28  0.2800E+02
   2.320 -0.2584E-33  0.2800E+02
   2.330 -0.3082E-39  0.2800E+02
   2.340 -0.1241E-45  0.2800E+02
   2.350 -0.1688E-52  0.2800E+02
   2.360 -0.7754E-60  0.2800E+02
   2.370 -0.1205E-67  0.2800E+02
   2.380 -0.6330E-76  0.2800E+02
   2.390 -0.4169E-80  0.2800E+02
   2.400 -0.4174E-80  0.2800E+02
   2.410 -0.4179E-80  0.2800E+02
   2.420 -0.4184E-80  0.2800E+02
   2.430 -0.4189E-80  0.2800E+02
   2.440 -0.4194E-80  0.2800E+02
   2.450 -0.4199E-80  0.2800E+02
   2.460 -0.4204E-80  0.2800E+02
   2.470 -0.4209E-80  0.2800E+02
   2.480 -0.4214E-80  0.2800E+02
   2.490 -0.4219E-80  0.2800E+02
   2.500 -0.4224E-80  0.2800E+02
   2.510 -0.4229E-80  0.2800E+02
   2.520 -0.4234E-80  0.2800E+02
   2.530 -0.4239E-80  0.2800E+02
   2.540 -0.4244E-80  0.2800E+02
   2.550 -0.4249E-80  0.2800E+02
   2.560 -0.4254E-80  0.2800E+02
   2.570 -0.4259E-80  0.2800E+02
   2.580 -0.4264E-80  0.2800E+02
   2.590 -0.4269E-80  0.2800E+02
   2.600 -0.4274E-80  0.2800E+02
   2.610 -0.4279E-80  0.2800E+02
   2.620 -0.4284E-80  0.2800E+02
   2.630 -0.4289E-80  0.2800E+02
   2.640 -0.4294E-80  0.2800E+02
   2.650 -0.4299E-80  0.2800E+02
   2.660 -0.4304E-80  0.2800E+02
   2.670 -0.4309E-80  0.2800E+02
   2.680 -0.4314E-80  0.2800E+02
   2.690 -0.4319E-80  0.2800E+02
   2.700 -0.4324E-80  0.2800E+02
   2.710 -0.4329E-80  0.2800E+02
   2.720 -0.4334E-80  0.2800E+02
   2.730 -0.4339E-80  0.2800E+02
   2.740 -0.4344E-80  0.2800E+02
   2.750 -0.4349E-80  0.2800E+02
   2.760 -0.4354E-80  0.2800E+02
   2.770 -0.4359E-80  0.2800E+02
   2.780 -0.4364E-80  0.2800E+02
   2.790 -0.4369E-80  0.2800E+02
   2.800 -0.4374E-80  0.2800E+02
   2.810 -0.4379E-80  0.2800E+02
   2.820 -0.4384E-80  0.2800E+02
   2.830 -0.4389E-80  0.2800E+02
   2.840 -0.4394E-80  0.2800E+02
   2.850 -0.4399E-80  0.2800E+02
   2.860 -0.4404E-80  0.2800E+02
   2.870 -0.4409E-80  0.2800E+02
   2.880 -0.4414E-80  0.2800E+02
   2.890 -0.4419E-80  0.2800E+02
   2.900 -0.4424E-80  0.2800E+02
   2.910 -0.4429E-80  0.2800E+02
   2.920 -0.4434E-80  0.2800E+02
   2.930 -0.4439E-80  0.2800E+02
   2.940 -0.4444E-80  0.2800E+02
   2.950 -0.4449E-80  0.2800E+02
   2.960 -0.4454E-80  0.2800E+02
   2.970 -0.4459E-80  0.2800E+02
   2.980 -0.4464E-80  0.2800E+02
   2.990 -0.4469E-80  0.2800E+02
   3.000 -0.4474E-80  0.2800E+02
   3.010 -0.4479E-80  0.2800E+02
   3.020 -0.4485E-80  0.2800E+02
   3.030 -0.4490E-80  0.2800E+02
   3.040 -0.4495E-80  0.2800E+02
   3.050 -0.4500E-80  0.2800E+02
   3.060 -0.4505E-80  0.2800E+02
   3.070 -0.4510E-80  0.2800E+02
   3.080 -0.4515E-80  0.2800E+02
   3.090 -0.4520E-80  0.2800E+02
   3.100 -0.4525E-80  0.2800E+02
   3.110 -0.4530E-80  0.2800E+02
   3.120 -0.4535E-80  0.2800E+02
   3.130 -0.4540E-80  0.2800E+02
   3.140 -0.4545E-80  0.2800E+02
   3.150 -0.4550E-80  0.2800E+02
   3.160 -0.4555E-80  0.2800E+02
   3.170 -0.4560E-80  0.2800E+02
   3.180 -0.4565E-80  0.2800E+02
   3.190 -0.4570E-80  0.2800E+02
   3.200 -0.4575E-80  0.2800E+02
   3.210 -0.4580E-80  0.2800E+02
   3.220 -0.4585E-80  0.2800E+02
   3.230 -0.4590E-80  0.2800E+02
   3.240 -0.4595E-80  0.2800E+02
   3.250 -0.4600E-80  0.2800E+02
   3.260 -0.4605E-80  0.2800E+02
   3.270 -0.4610E-80  0.2800E+02
   3.280 -0.4615E-80  0.2800E+02
   3.290 -0.4620E-80  0.2800E+02
   3.300 -0.4625E-80  0.2800E+02
   3.310 -0.4630E-80  0.2800E+02
   3.320 -0.4635E-80  0.2800E+02
   3.330 -0.4640E-80  0.2800E+02
   3.340 -0.4645E-80  0.2800E+02
   3.350 -0.4650E-80  0.2800E+02
   3.360 -0.4655E-80  0.2800E+02
   3.370 -0.4660E-80  0.2800E+02
   3.380 -0.4665E-80  0.2800E+02
   3.390 -0.4670E-80  0.2800E+02
   3.400 -0.4675E-80  0.2800E+02
   3.410 -0.4680E-80  0.2800E+02
   3.420 -0.4685E-80  0.2800E+02
   3.430 -0.4690E-80  0.2800E+02
   3.440 -0.4695E-80  0.2800E+02
   3.450 -0.4700E-80  0.2800E+02
   3.460 -0.4705E-80  0.2800E+02
   3.470 -0.4710E-80  0.2800E+02
   3.480 -0.4715E-80  0.2800E+02
   3.490 -0.4720E-80  0.2800E+02
   3.500 -0.4725E-80  0.2800E+02
   3.510 -0.4730E-80  0.2800E+02
   3.520 -0.4735E-80  0.2800E+02
   3.530 -0.4740E-80  0.2800E+02
   3.540 -0.4745E-80  0.2800E+02
   3.550 -0.4750E-80  0.2800E+02
   3.560 -0.4725E-80  0.2800E+02
   3.570  0.1233E-73  0.2800E+02
   3.580  0.1703E-65  0.2800E+02
   3.590  0.7956E-58  0.2800E+02
   3.600  0.1258E-50  0.2800E+02
   3.610  0.6721E-44  0.2800E+02
   3.620  0.1214E-37  0.2800E+02
   3.630  0.7402E-32  0.2800E+02
   3.640  0.1523E-26  0.2800E+02
   3.650  0.1057E-21  0.2800E+02
   3.660  0.2467E-17  0.2800E+02
   3.670  0.1936E-13  0.2800E+02
   3.680  0.5098E-10  0.2800E+02
   3.690  0.4494E-07  0.2800E+02
   3.700  0.1323E-04  0.2800E+02
   3.710  0.1301E-02  0.2800E+02
   3.720  0.4305E-01  0.2800E+02
   3.730  0.4949E+00  0.2801E+02
   3.740  0.2221E+01  0.2803E+02
   3.750  0.5105E+01  0.2808E+02
   3.760  0.7470E+01  0.2815E+02
   3.770  0.7097E+01  0.2822E+02
   3.780  0.5218E+01  0.2828E+02
   3.790  0.3145E+01  0.2831E+02
   3.800  0.2858E+01  0.2834E+02
   3.810  0.3330E+01  0.2837E+02
   3.820  0.3855E+01  0.2841E+02
   3.830  0.3708E+01  0.2845E+02
   3.840  0.2052E+01  0.2847E+02
   3.850  0.1566E+01  0.2848E+02
   3.860  0.2470E+01  0.2851E+02
   3.870  0.2668E+01  0.2853E+02
   3.880  0.2889E+01  0.2856E+02
   3.890  0.2882E+01  0.2859E+02
   3.900  0.2381E+01  0.2861E+02
   3.910  0.2199E+01  0.2864E+02
   3.920  0.1410E+01  0.2865E+02
   3.930  0.2133E+01  0.2867E+02
   3.940  0.2875E+01  0.2870E+02
   3.950  0.3216E+01  0.2873E+02
   3.960  0.4579E+01  0.2878E+02
   3.970  0.5077E+01  0.2883E+02
   3.980  0.3394E+01  0.2886E+02
   3.990  0.2687E+01  0.2889E+02
   4.000  0.3669E+01  0.2893E+02
   4.010  0.4810E+01  0.2898E+02
   4.020  0.4596E+01  0.2902E+02
   4.030  0.4619E+01  0.2907E+02
   4.040  0.4481E+01  0.2911E+02
   4.050  0.4914E+01  0.2916E+02
   4.060  0.5272E+01  0.2921E+02
   4.070  0.3983E+01  0.2925E+02
   4.080  0.3643E+01  0.2929E+02
   4.090  0.4604E+01  0.2934E+02
   4.100  0.5568E+01  0.2939E+02
   4.110  0.2476E+01  0.2942E+02
   4.120 -0.1650E+00  0.2941E+02
   4.130  0.2197E+01  0.2944E+02
   4.140  0.4784E+01  0.2948E+02
   4.150  0.3030E+01  0.2952E+02
   4.160  0.2525E+01  0.2954E+02
   4.170  0.3520E+01  0.2958E+02
   4.180  0.2875E+01  0.2960E+02
   4.190  0.1926E+01  0.2962E+02
   4.200  0.2974E+01  0.2965E+02
   4.210  0.3796E+01  0.2969E+02
   4.220  0.3318E+01  0.2972E+02
   4.230  0.2734E+01  0.2975E+02
   4.240  0.2579E+01  0.2978E+02
   4.250  0.4243E+01  0.2982E+02
   4.260  0.6759E+01  0.2989E+02
   4.270  0.8368E+01  0.2997E+02
   4.280  0.1094E+02  0.3008E+02
   4.290  0.1196E+02  0.3020E+02
   4.300  0.1105E+02  0.3031E+02
   4.310  0.1068E+02  0.3042E+02
   4.320  0.1330E+02  0.3055E+02
   4.330  0.1603E+02  0.3071E+02
   4.340  0.1994E+02  0.3091E+02
   4.350  0.1964E+02  0.3111E+02
   4.360  0.1433E+02  0.3125E+02
   4.370  0.1050E+02  0.3135E+02
   4.380  0.4216E+01  0.3140E+02
   4.390  0.3905E+01  0.3144E+02
   4.400  0.5166E+01  0.3149E+02
   4.410  0.2043E+01  0.3151E+02
   4.420  0.2011E+01  0.3153E+02
   4.430  0.5852E+01  0.3159E+02
   4.440  0.7089E+01  0.3166E+02
   4.450  0.3532E+01  0.3169E+02
   4.460  0.2282E+01  0.3172E+02
   4.470  0.3889E+01  0.3175E+02
   4.480  0.6029E+01  0.3182E+02
   4.490  0.5646E+01  0.3187E+02
   4.500  0.2551E+01  0.3190E+02
   4.510  0.3886E+01  0.3194E+02
   4.520  0.6749E+01  0.3200E+02
   4.530  0.7772E+01  0.3208E+02
   4.540  0.1026E+02  0.3218E+02
   4.550  0.9077E+01  0.3227E+02
   4.560  0.5184E+01  0.3233E+02
   4.570  0.5014E+01  0.3238E+02
   4.580  0.6148E+01  0.3244E+02
   4.590  0.8112E+01  0.3252E+02
   4.600  0.8308E+01  0.3260E+02
   4.610  0.7831E+01  0.3268E+02
   4.620  0.6358E+01  0.3274E+02
   4.630  0.5528E+01  0.3280E+02
   4.640  0.6136E+01  0.3286E+02
   4.650  0.5900E+01  0.3292E+02
   4.660  0.7813E+01  0.3300E+02
   4.670  0.7117E+01  0.3307E+02
   4.680  0.3594E+01  0.3310E+02
   4.690  0.5825E+01  0.3316E+02
   4.700  0.1021E+02  0.3327E+02
   4.710  0.1096E+02  0.3337E+02
   4.720  0.1052E+02  0.3348E+02
   4.730  0.8946E+01  0.3357E+02
   4.740  0.6063E+01  0.3363E+02
   4.750  0.4138E+01  0.3367E+02
   4.760  0.6520E+01  0.3374E+02
   4.770  0.1092E+02  0.3385E+02
   4.780  0.1188E+02  0.3396E+02
   4.790  0.9999E+01  0.3406E+02
   4.800  0.5446E+01  0.3412E+02
   4.810  0.1052E+02  0.3422E+02
   4.820  0.1644E+02  0.3439E+02
   4.830  0.1166E+02  0.3451E+02
   4.840  0.1354E+02  0.3464E+02
   4.850  0.2474E+02  0.3489E+02
   4.860  0.2247E+02  0.3511E+02
   4.870  0.1069E+02  0.3522E+02
   4.880  0.7649E+01  0.3530E+02
   4.890  0.1006E+02  0.3540E+02
   4.900  0.9835E+01  0.3550E+02
   4.910  0.8099E+01  0.3558E+02
   4.920  0.6272E+01  0.3564E+02
   4.930  0.8060E+01  0.3572E+02
   4.940  0.1514E+02  0.3587E+02
   4.950  0.2110E+02  0.3608E+02
   4.960  0.1825E+02  0.3626E+02
   4.970  0.1348E+02  0.3640E+02
   4.980  0.9883E+01  0.3650E+02
   4.990  0.9372E+01  0.3659E+02
   5.000  0.1021E+02  0.3669E+02
   5.010  0.8957E+01  0.3678E+02
   5.020  0.9079E+01  0.3687E+02
   5.030  0.1060E+02  0.3698E+02
   5.040  0.1315E+02  0.3711E+02
   5.050  0.1300E+02  0.3724E+02
   5.060  0.1035E+02  0.3735E+02
   5.070  0.9326E+01  0.3744E+02
   5.080  0.1228E+02  0.3756E+02
   5.090  0.1696E+02  0.3773E+02
   5.100  0.1409E+02  0.3787E+02
   5.110  0.9467E+01  0.3797E+02
   5.120  0.1019E+02  0.3807E+02
   5.130  0.7781E+01  0.3815E+02
   5.140  0.6595E+01  0.3821E+02
   5.150  0.4542E+01  0.3826E+02
   5.160  0.3433E+01  0.3829E+02
   5.170  0.3746E+01  0.3833E+02
   5.180  0.2368E+01  0.3835E+02
   5.190  0.1561E+01  0.3837E+02
   5.200  0.3647E+01  0.3841E+02
   5.210  0.4096E+01  0.3845E+02
   5.220  0.2772E+01  0.3847E+02
   5.230  0.4915E+01  0.3852E+02
   5.240  0.4142E+01  0.3856E+02
   5.250  0.2239E+01  0.3859E+02
   5.260  0.1118E+01  0.3860E+02
   5.270 -0.1273E+00  0.3860E+02
   5.280  0.8414E+00  0.3861E+02
   5.290  0.3182E+01  0.3864E+02
   5.300  0.2682E+01  0.3866E+02
   5.310  0.4092E+00  0.3867E+02
   5.320  0.9081E+00  0.3868E+02
   5.330  0.1548E+01  0.3869E+02
   5.340  0.3184E+01  0.3872E+02
   5.350  0.5291E+01  0.3878E+02
   5.360  0.4241E+01  0.3882E+02
   5.370  0.2173E+01  0.3884E+02
   5.380  0.1578E+01  0.3886E+02
   5.390  0.2525E+01  0.3888E+02
   5.400  0.3528E+01  0.3892E+02
   5.410  0.5183E+01  0.3897E+02
   5.420  0.5544E+01  0.3902E+02
   5.430  0.4767E+01  0.3907E+02
   5.440  0.1908E+01  0.3909E+02
   5.450  0.2580E+01  0.3912E+02
   5.460  0.6469E+01  0.3918E+02
   5.470  0.6226E+01  0.3924E+02
   5.480  0.3685E+01  0.3928E+02
   5.490  0.1739E+01  0.3930E+02
   5.500  0.1828E+01  0.3932E+02
   5.510  0.2231E+01  0.3934E+02
   5.520  0.4727E+01  0.3939E+02
   5.530  0.5794E+01  0.3944E+02
   5.540  0.4565E+01  0.3949E+02
   5.550  0.3942E+01  0.3953E+02
   5.560  0.3053E+01  0.3956E+02
   5.570  0.3350E+01  0.3959E+02
   5.580  0.3334E+01  0.3963E+02
   5.590  0.4323E+01  0.3967E+02
   5.600  0.5482E+01  0.3972E+02
   5.610  0.5122E+01  0.3978E+02
   5.620  0.3627E+01  0.3981E+02
   5.630  0.4549E+01  0.3986E+02
   5.640  0.4742E+01  0.3991E+02
   5.650  0.3811E+01  0.3994E+02
   5.660  0.7665E+01  0.4002E+02
   5.670  0.1026E+02  0.4012E+02
   5.680  0.8742E+01  0.4021E+02
   5.690  0.6119E+01  0.4027E+02
   5.700  0.4314E+01  0.4031E+02
   5.710  0.4796E+01  0.4036E+02
   5.720  0.3820E+01  0.4040E+02
   5.730  0.3072E+01  0.4043E+02
   5.740  0.3976E+01  0.4047E+02
   5.750  0.3282E+01  0.4050E+02
   5.760  0.2119E+01  0.4053E+02
   5.770  0.1474E+01  0.4054E+02
   5.780  0.1970E+01  0.4056E+02
   5.790  0.2895E+01  0.4059E+02
   5.800  0.2847E+01  0.4062E+02
   5.810  0.3070E+01  0.4065E+02
   5.820  0.2283E+01  0.4067E+02
   5.830  0.1645E+01  0.4069E+02
   5.840  0.2142E+01  0.4071E+02
   5.850  0.2689E+01  0.4074E+02
   5.860  0.2103E+01  0.4076E+02
   5.870  0.1879E+01  0.4077E+02
   5.880  0.3086E+01  0.4081E+02
   5.890  0.2906E+01  0.4083E+02
   5.900  0.2022E+01  0.4086E+02
   5.910  0.1893E+01  0.4087E+02
   5.920  0.3376E+01  0.4091E+02
   5.930  0.3718E+01  0.4094E+02
   5.940  0.2147E+01  0.4097E+02
   5.950  0.1914E+01  0.4099E+02
   5.960  0.1692E+01  0.4100E+02
   5.970  0.2813E+01  0.4103E+02
   5.980  0.3221E+01  0.4106E+02
   5.990  0.2473E+01  0.4109E+02
   6.000  0.3438E+01  0.4112E+02
   6.010  0.4037E+01  0.4116E+02
   6.020  0.4638E+01  0.4121E+02
   6.030  0.5677E+01  0.4127E+02
   6.040  0.6182E+01  0.4133E+02
   6.050  0.6168E+01  0.4139E+02
   6.060  0.4981E+01  0.4144E+02
   6.070  0.3768E+01  0.4148E+02
   6.080  0.2806E+01  0.4150E+02
   6.090  0.1563E+01  0.4152E+02
   6.100  0.1473E+01  0.4153E+02
   6.110  0.1687E+01  0.4155E+02
   6.120  0.1710E+01  0.4157E+02
   6.130  0.2269E+01  0.4159E+02
   6.140  0.2526E+01  0.4162E+02
   6.150  0.2840E+01  0.4165E+02
   6.160  0.2724E+01  0.4167E+02
   6.170  0.9215E+00  0.4168E+02
   6.180  0.1838E+01  0.4170E+02
   6.190  0.2949E+01  0.4173E+02
   6.200  0.1211E+01  0.4174E+02
   6.210  0.2576E+00  0.4174E+02
   6.220  0.1992E+01  0.4176E+02
   6.230  0.3430E+01  0.4180E+02
   6.240  0.3879E+01  0.4184E+02
   6.250  0.3519E+01  0.4187E+02
   6.260  0.2174E+01  0.4189E+02
   6.270  0.1576E+01  0.4191E+02
   6.280  0.5092E+01  0.4196E+02
   6.290  0.7154E+01  0.4203E+02
   6.300  0.3848E+01  0.4207E+02
   6.310  0.2646E+01  0.4210E+02
   6.320  0.5201E+01  0.4215E+02
   6.330  0.6832E+01  0.4222E+02
   6.340  0.7886E+01  0.4230E+02
   6.350  0.6521E+01  0.4236E+02
   6.360  0.3770E+01  0.4240E+02
   6.370  0.2028E+01  0.4242E+02
   6.380  0.1035E+01  0.4243E+02
   6.390  0.1709E+01  0.4245E+02
   6.400  0.2881E+01  0.4248E+02
   6.410  0.4139E+01  0.4252E+02
   6.420  0.3973E+01  0.4256E+02
   6.430  0.3969E+01  0.4260E+02
   6.440  0.4573E+01  0.4264E+02
   6.450  0.4760E+01  0.4269E+02
   6.460  0.4798E+01  0.4274E+02
   6.470  0.2865E+01  0.4277E+02
   6.480  0.1184E+01  0.4278E+02
   6.490  0.1976E+01  0.4280E+02
   6.500  0.2954E+01  0.4283E+02
   6.510  0.1267E+01  0.4284E+02
   6.520  0.2658E+00  0.4284E+02
   6.530  0.1193E+01  0.4286E+02
   6.540  0.1723E+01  0.4287E+02
   6.550  0.2325E+01  0.4290E+02
   6.560  0.1399E+01  0.4291E+02
   6.570  0.1328E+01  0.4292E+02
   6.580  0.2151E+01  0.4294E+02
   6.590  0.1737E+01  0.4296E+02
   6.600  0.1993E+01  0.4298E+02
   6.610  0.1136E+01  0.4299E+02
   6.620  0.4877E+00  0.4300E+02
   6.630  0.2123E+01  0.4302E+02
   6.640  0.3180E+01  0.4305E+02
   6.650  0.1915E+01  0.4307E+02
   6.660  0.9000E+00  0.4308E+02
   6.670  0.8215E+00  0.4309E+02
   6.680  0.2121E+01  0.4311E+02
   6.690  0.1884E+01  0.4313E+02
   6.700  0.1406E+01  0.4314E+02
   6.710  0.2329E+01  0.4316E+02
   6.720  0.1508E+01  0.4318E+02
   6.730  0.1414E+01  0.4319E+02
   6.740  0.1430E+01  0.4321E+02
   6.750  0.1154E+01  0.4322E+02
   6.760  0.1976E+01  0.4324E+02
   6.770  0.2569E+01  0.4327E+02
   6.780  0.1345E+01  0.4328E+02
   6.790  0.4687E+00  0.4328E+02
   6.800  0.1771E+01  0.4330E+02
   6.810  0.2207E+01  0.4332E+02
   6.820  0.1852E+01  0.4334E+02
   6.830  0.2100E+01  0.4336E+02
   6.840  0.7633E+00  0.4337E+02
   6.850  0.1022E+01  0.4338E+02
   6.860  0.1885E+01  0.4340E+02
   6.870  0.2149E+01  0.4342E+02
   6.880  0.2622E+01  0.4345E+02
   6.890  0.1974E+01  0.4347E+02
   6.900  0.8170E+00  0.4347E+02
   6.910  0.2925E+00  0.4348E+02
   6.920  0.1964E+01  0.4350E+02
   6.930  0.4350E+01  0.4354E+02
   6.940  0.2558E+01  0.4357E+02
   6.950  0.6562E-01  0.4357E+02
   6.960  0.1275E+01  0.4358E+02
   6.970  0.2808E+01  0.4361E+02
   6.980  0.2686E+01  0.4363E+02
   6.990  0.3046E+01  0.4367E+02
   7.000  0.2513E+01  0.4369E+02
   7.010  0.1511E+01  0.4371E+02
   7.020  0.2957E+01  0.4374E+02
   7.030  0.4619E+01  0.4378E+02
   7.040  0.3628E+01  0.4382E+02
   7.050  0.4795E+01  0.4387E+02
   7.060  0.7561E+01  0.4394E+02
   7.070  0.6104E+01  0.4400E+02
   7.080  0.7984E+00  0.4401E+02
   7.090 -0.8153E+00  0.4400E+02
   7.100 -0.2016E+00  0.4400E+02
   7.110 -0.1210E-01  0.4400E+02
   7.120 -0.2200E-03  0.4400E+02
   7.130 -0.1280E-05  0.4400E+02
   7.140 -0.2438E-08  0.4400E+02
   7.150 -0.1535E-11  0.4400E+02
   7.160 -0.3220E-15  0.4400E+02
   7.170 -0.2259E-19  0.4400E+02
   7.180 -0.5317E-24  0.4400E+02
   7.190 -0.4208E-29  0.4400E+02
   7.200 -0.1121E-34  0.4400E+02
   7.210 -0.1008E-40  0.4400E+02
   7.220 -0.3059E-47  0.4400E+02
   7.230 -0.3137E-54  0.4400E+02
   7.240 -0.1087E-61  0.4400E+02
   7.250  0.4272E-57  0.4400E+02
   7.260  0.6342E-50  0.4400E+02
   7.270  0.3183E-43  0.4400E+02
   7.280  0.5400E-37  0.4400E+02
   7.290  0.3093E-31  0.4400E+02
   7.300  0.5977E-26  0.4400E+02
   7.310  0.3893E-21  0.4400E+02
   7.320  0.8535E-17  0.4400E+02
   7.330  0.6289E-13  0.4400E+02
   7.340  0.1554E-09  0.4400E+02
   7.350  0.1285E-06  0.4400E+02
   7.360  0.3545E-04  0.4400E+02
   7.370  0.3255E-02  0.4400E+02
   7.380  0.9947E-01  0.4400E+02
   7.390  0.1016E+01  0.4401E+02
   7.400  0.3499E+01  0.4405E+02
   7.410  0.4023E+01  0.4409E+02
   7.420  0.1681E+01  0.4410E+02
   7.430  0.1534E+01  0.4412E+02
   7.440  0.1509E+01  0.4413E+02
   7.450  0.6063E+00  0.4414E+02
   7.460  0.1056E+01  0.4415E+02
   7.470  0.1186E+01  0.4416E+02
   7.480  0.1118E+01  0.4417E+02
   7.490  0.7285E+00  0.4418E+02
   7.500  0.8364E+00  0.4419E+02
   7.510  0.9808E+00  0.4420E+02
   7.520  0.2104E+00  0.4420E+02
   7.530  0.7306E+00  0.4421E+02
   7.540  0.2195E+01  0.4423E+02
   7.550  0.4267E+01  0.4427E+02
   7.560  0.5108E+01  0.4432E+02
   7.570  0.2122E+01  0.4435E+02
   7.580  0.1253E+01  0.4436E+02
   7.590  0.1697E+01  0.4437E+02
   7.600  0.1327E+01  0.4439E+02
   7.610  0.2391E+01  0.4441E+02
   7.620  0.2678E+01  0.4444E+02
   7.630  0.1878E+01  0.4446E+02
   7.640  0.8349E+00  0.4447E+02
   7.650  0.5015E+00  0.4447E+02
   7.660  0.1088E+01  0.4448E+02
   7.670  0.4829E+00  0.4449E+02
   7.680  0.7165E+00  0.4449E+02
   7.690  0.2940E+01  0.4452E+02
   7.700  0.3155E+01  0.4455E+02
   7.710  0.1275E+01  0.4457E+02
   7.720  0.6133E+00  0.4457E+02
   7.730 -0.5401E-01  0.4457E+02
   7.740 -0.1016E+00  0.4457E+02
   7.750  0.2749E+00  0.4457E+02
   7.760  0.1182E+01  0.4459E+02
   7.770  0.2073E+01  0.4461E+02
   7.780  0.2854E+01  0.4464E+02
   7.790  0.2290E+01  0.4466E+02
   7.800  0.4574E+00  0.4466E+02
   7.810  0.2290E-01  0.4466E+02
   7.820  0.1679E+01  0.4468E+02
   7.830  0.3861E+01  0.4472E+02
   7.840  0.4248E+01  0.4476E+02
   7.850  0.5019E+01  0.4481E+02
   7.860  0.3666E+01  0.4485E+02
   7.870  0.1912E+01  0.4487E+02
   7.880  0.1955E+01  0.4489E+02
   7.890  0.1571E+01  0.4490E+02
   7.900  0.1943E+01  0.4492E+02
   7.910  0.1837E+01  0.4494E+02
   7.920  0.1812E+01  0.4496E+02
   7.930  0.2787E+01  0.4499E+02
   7.940  0.3474E+01  0.4502E+02
   7.950  0.1787E+01  0.4504E+02
   7.960  0.6951E+00  0.4505E+02
   7.970  0.1632E+01  0.4506E+02
   7.980  0.1597E+01  0.4508E+02
   7.990  0.9406E+00  0.4509E+02
   8.000  0.1035E+01  0.4510E+02
   8.010  0.6641E+00  0.4510E+02
   8.020  0.1844E+01  0.4512E+02
   8.030  0.3574E+01  0.4516E+02
   8.040  0.2116E+01  0.4518E+02
   8.050  0.1872E+01  0.4520E+02
   8.060  0.2165E+01  0.4522E+02
   8.070  0.1235E+01  0.4523E+02
   8.080  0.6414E+00  0.4524E+02
   8.090  0.1201E+01  0.4525E+02
   8.100  0.1444E+01  0.4527E+02
   8.110  0.1132E+01  0.4528E+02
   8.120  0.8581E+00  0.4529E+02
   8.130  0.1458E+01  0.4530E+02
   8.140  0.2653E+01  0.4533E+02
   8.150  0.4168E+01  0.4537E+02
   8.160  0.3846E+01  0.4541E+02
   8.170  0.3440E+01  0.4544E+02
   8.180  0.1889E+01  0.4546E+02
   8.190  0.1363E+01  0.4547E+02
   8.200  0.2338E+01  0.4550E+02
   8.210  0.3667E+01  0.4553E+02
   8.220  0.2630E+01  0.4556E+02
   8.230  0.2337E+01  0.4558E+02
   8.240  0.2226E+01  0.4561E+02
   8.250  0.3359E+00  0.4561E+02
   8.260  0.1496E+00  0.4561E+02
   8.270  0.1307E+01  0.4562E+02
   8.280  0.1614E+01  0.4564E+02
   8.290  0.1332E+01  0.4565E+02
   8.300  0.1852E+01  0.4567E+02
   8.310  0.3191E+01  0.4570E+02
   8.320  0.1866E+01  0.4572E+02
   8.330  0.1411E+01  0.4574E+02
   8.340  0.3936E+01  0.4578E+02
   8.350  0.4746E+01  0.4582E+02
   8.360  0.2970E+01  0.4585E+02
   8.370  0.1242E+01  0.4587E+02
   8.380  0.2776E+01  0.4589E+02
   8.390  0.3952E+01  0.4593E+02
   8.400  0.2522E+01  0.4596E+02
   8.410  0.7918E+00  0.4597E+02
   8.420  0.1197E+01  0.4598E+02
   8.430  0.2844E+01  0.4601E+02
   8.440  0.5329E+01  0.4606E+02
   8.450  0.5701E+01  0.4612E+02
   8.460  0.5264E+01  0.4617E+02
   8.470  0.6495E+01  0.4623E+02
   8.480  0.7831E+01  0.4631E+02
   8.490  0.6262E+01  0.4637E+02
   8.500  0.4502E+01  0.4642E+02
   8.510  0.3034E+01  0.4645E+02
   8.520  0.2107E+01  0.4647E+02
   8.530  0.2474E+01  0.4650E+02
   8.540  0.3499E+01  0.4653E+02
   8.550  0.2645E+01  0.4656E+02
   8.560  0.1661E+01  0.4657E+02
   8.570  0.2741E+01  0.4660E+02
   8.580  0.3603E+01  0.4664E+02
   8.590  0.2889E+01  0.4667E+02
   8.600  0.4705E+01  0.4671E+02
   8.610  0.6649E+01  0.4678E+02
   8.620  0.5464E+01  0.4683E+02
   8.630  0.1554E+01  0.4685E+02
   8.640  0.1691E+01  0.4687E+02
   8.650  0.3253E+01  0.4690E+02
   8.660  0.2080E+01  0.4692E+02
   8.670  0.2762E+01  0.4695E+02
   8.680  0.3964E+01  0.4699E+02
   8.690  0.2879E+01  0.4702E+02
   8.700  0.1305E+01  0.4703E+02
   8.710  0.6870E+00  0.4704E+02
   8.720  0.7891E+00  0.4704E+02
   8.730  0.2879E+01  0.4707E+02
   8.740  0.3790E+01  0.4711E+02
   8.750  0.2467E+01  0.4714E+02
   8.760  0.2895E+01  0.4716E+02
   8.770  0.4450E+01  0.4721E+02
   8.780  0.3920E+01  0.4725E+02
   8.790  0.2529E+01  0.4727E+02
   8.800  0.1845E+01  0.4729E+02
   8.810  0.1837E+01  0.4731E+02
   8.820  0.1597E+01  0.4733E+02
   8.830  0.1880E+01  0.4734E+02
   8.840  0.3544E+01  0.4738E+02
   8.850  0.4512E+01  0.4743E+02
   8.860  0.4621E+01  0.4747E+02
   8.870  0.2895E+01  0.4750E+02
   8.880  0.8582E+00  0.4751E+02
   8.890  0.1370E+01  0.4752E+02
   8.900  0.2495E+01  0.4755E+02
   8.910  0.3896E+01  0.4759E+02
   8.920  0.3098E+01  0.4762E+02
   8.930  0.2411E+01  0.4764E+02
   8.940  0.4605E+01  0.4769E+02
   8.950  0.5621E+01  0.4774E+02
   8.960  0.3209E+01  0.4778E+02
   8.970  0.1353E+01  0.4779E+02
   8.980  0.2482E+01  0.4781E+02
   8.990  0.3529E+01  0.4785E+02
   9.000  0.2457E+01  0.4787E+02
   9.010  0.2516E+01  0.4790E+02
   9.020  0.3536E+01  0.4794E+02
   9.030  0.4237E+01  0.4798E+02
   9.040  0.2951E+01  0.4801E+02
   9.050  0.2888E+01  0.4804E+02
   9.060  0.1948E+01  0.4806E+02
   9.070  0.1567E+01  0.4807E+02
   9.080  0.2495E+01  0.4810E+02
   9.090  0.2688E+01  0.4812E+02
   9.100  0.1866E+01  0.4814E+02
   9.110  0.1790E+01  0.4816E+02
   9.120  0.2835E+01  0.4819E+02
   9.130  0.3981E+01  0.4823E+02
   9.140  0.3908E+01  0.4827E+02
   9.150  0.1902E+01  0.4829E+02
   9.160  0.4008E+00  0.4829E+02
   9.170  0.2028E+00  0.4829E+02
   9.180  0.2738E+01  0.4832E+02
   9.190  0.6720E+01  0.4839E+02
   9.200  0.6893E+01  0.4846E+02
   9.210  0.4305E+01  0.4850E+02
   9.220  0.4148E+01  0.4854E+02
   9.230  0.4049E+01  0.4858E+02
   9.240  0.2719E+01  0.4861E+02
   9.250  0.3303E+01  0.4864E+02
   9.260  0.4766E+01  0.4869E+02
   9.270  0.4727E+01  0.4874E+02
   9.280  0.3980E+01  0.4878E+02
   9.290  0.3664E+01  0.4881E+02
   9.300  0.4670E+01  0.4886E+02
   9.310  0.6300E+01  0.4892E+02
   9.320  0.5881E+01  0.4898E+02
   9.330  0.2528E+01  0.4901E+02
   9.340  0.1248E+01  0.4902E+02
   9.350  0.2373E+01  0.4904E+02
   9.360  0.2223E+01  0.4906E+02
   9.370  0.1607E+01  0.4908E+02
   9.380  0.2129E+01  0.4910E+02
   9.390  0.2662E+01  0.4913E+02
   9.400  0.1911E+01  0.4915E+02
   9.410  0.6874E+00  0.4915E+02
   9.420  0.1887E+01  0.4917E+02
   9.430  0.2832E+01  0.4920E+02
   9.440  0.3230E+01  0.4923E+02
   9.450  0.2932E+01  0.4926E+02
   9.460  0.3512E+01  0.4930E+02
   9.470  0.6218E+01  0.4936E+02
   9.480  0.5730E+01  0.4942E+02
   9.490  0.4699E+01  0.4946E+02
   9.500  0.3133E+01  0.4950E+02
   9.510  0.4166E+01  0.4954E+02
   9.520  0.5144E+01  0.4959E+02
   9.530  0.2927E+01  0.4962E+02
   9.540  0.1523E+01  0.4963E+02
   9.550  0.1373E+01  0.4965E+02
   9.560  0.3628E+01  0.4968E+02
   9.570  0.4174E+01  0.4973E+02
   9.580  0.2529E+01  0.4975E+02
   9.590  0.1644E+01  0.4977E+02
   9.600  0.3884E+01  0.4981E+02
   9.610  0.9024E+01  0.4990E+02
   9.620  0.8463E+01  0.4998E+02
   9.630  0.4215E+01  0.5002E+02
   9.640  0.3555E+01  0.5006E+02
   9.650  0.4565E+01  0.5010E+02
   9.660  0.4118E+01  0.5014E+02
   9.670  0.4499E+01  0.5019E+02
   9.680  0.5762E+01  0.5025E+02
   9.690  0.5964E+01  0.5031E+02
   9.700  0.5929E+01  0.5037E+02
   9.710  0.3741E+01  0.5040E+02
   9.720  0.2796E+01  0.5043E+02
   9.730  0.3990E+01  0.5047E+02
   9.740  0.3348E+01  0.5051E+02
   9.750  0.2697E+01  0.5053E+02
   9.760  0.3540E+01  0.5057E+02
   9.770  0.4410E+01  0.5061E+02
   9.780  0.4180E+01  0.5065E+02
   9.790  0.3098E+01  0.5068E+02
   9.800  0.1943E+01  0.5070E+02
   9.810  0.5026E+00  0.5071E+02
   9.820  0.5673E+00  0.5071E+02
   9.830  0.1681E+01  0.5073E+02
   9.840  0.2795E+01  0.5076E+02
   9.850  0.4974E+01  0.5081E+02
   9.860  0.7363E+01  0.5088E+02
   9.870  0.7861E+01  0.5096E+02
   9.880  0.4363E+01  0.5101E+02
   9.890  0.2022E+01  0.5103E+02
   9.900  0.2943E+01  0.5105E+02
   9.910  0.6377E+01  0.5112E+02
   9.920  0.7716E+01  0.5120E+02
   9.930  0.3147E+01  0.5123E+02
   9.940  0.1609E+01  0.5124E+02
   9.950  0.4230E+01  0.5129E+02
   9.960  0.5133E+01  0.5134E+02
   9.970  0.5174E+01  0.5139E+02
   9.980  0.4341E+01  0.5143E+02
   9.990  0.4781E+01  0.5148E+02
  10.000  0.7392E+01  0.5155E+02
  10.010  0.7727E+01  0.5163E+02
  10.020  0.4879E+01  0.5168E+02
  10.030  0.2322E+01  0.5170E+02
  10.040  0.1562E+01  0.5172E+02
  10.050  0.1925E+01  0.5174E+02
  10.060  0.1404E+01  0.5175E+02
  10.070  0.4197E+01  0.5179E+02
  10.080  0.8107E+01  0.5187E+02
  10.090  0.6875E+01  0.5194E+02
  10.100  0.3045E+01  0.5197E+02
  10.110  0.1410E+01  0.5199E+02
  10.120  0.1210E+01  0.5200E+02
  10.130  0.9810E+00  0.5201E+02
  10.140  0.1149E+01  0.5202E+02
  10.150  0.1688E+01  0.5204E+02
  10.160  0.5131E+01  0.5209E+02
  10.170  0.7685E+01  0.5217E+02
  10.180  0.4956E+01  0.5222E+02
  10.190  0.2183E+01  0.5224E+02
  10.200  0.2868E+01  0.5227E+02
  10.210  0.6329E+01  0.5233E+02
  10.220  0.7299E+01  0.5240E+02
  10.230  0.4143E+01  0.5244E+02
  10.240  0.3430E+01  0.5248E+02
  10.250  0.5847E+01  0.5254E+02
  10.260  0.8156E+01  0.5262E+02
  10.270  0.7078E+01  0.5269E+02
  10.280  0.5927E+01  0.5275E+02
  10.290  0.5807E+01  0.5281E+02
  10.300  0.5829E+01  0.5287E+02
  10.310  0.5071E+01  0.5292E+02
  10.320  0.6346E+01  0.5298E+02
  10.330  0.9120E+01  0.5307E+02
  10.340  0.6907E+01  0.5314E+02
  10.350  0.4550E+01  0.5319E+02
  10.360  0.7513E+01  0.5326E+02
  10.370  0.8614E+01  0.5335E+02
  10.380  0.4103E+01  0.5339E+02
  10.390  0.4525E+00  0.5339E+02
  10.400  0.3534E+00  0.5340E+02
  10.410  0.1633E+01  0.5341E+02
  10.420  0.3098E+01  0.5344E+02
  10.430  0.4808E+01  0.5349E+02
  10.440  0.7209E+01  0.5356E+02
  10.450  0.9617E+01  0.5366E+02
  10.460  0.6460E+01  0.5372E+02
  10.470  0.3381E+01  0.5376E+02
  10.480  0.4363E+01  0.5380E+02
  10.490  0.5018E+01  0.5385E+02
  10.500  0.4507E+01  0.5390E+02
  10.510  0.4387E+01  0.5394E+02
  10.520  0.4721E+01  0.5399E+02
  10.530  0.6760E+01  0.5406E+02
  10.540  0.7017E+01  0.5413E+02
  10.550  0.5752E+01  0.5418E+02
  10.560  0.4023E+01  0.5422E+02
  10.570  0.4563E+01  0.5427E+02
  10.580  0.5402E+01  0.5432E+02
  10.590  0.2060E+01  0.5434E+02
  10.600  0.1192E+01  0.5436E+02
  10.610  0.3978E+01  0.5439E+02
  10.620  0.5972E+01  0.5445E+02
  10.630  0.3939E+01  0.5449E+02
  10.640  0.2284E+01  0.5452E+02
  10.650  0.5361E+01  0.5457E+02
  10.660  0.4810E+01  0.5462E+02
  10.670  0.1823E+01  0.5464E+02
  10.680  0.3238E+01  0.5467E+02
  10.690  0.3898E+01  0.5471E+02
  10.700  0.2966E+01  0.5474E+02
  10.710  0.1946E+01  0.5476E+02
  10.720  0.1192E+01  0.5477E+02
  10.730  0.1919E+01  0.5479E+02
  10.740  0.4393E+01  0.5483E+02
  10.750  0.6894E+01  0.5490E+02
  10.760  0.7638E+01  0.5498E+02
  10.770  0.6682E+01  0.5504E+02
  10.780  0.2492E+01  0.5507E+02
  10.790  0.4074E+00  0.5507E+02
  10.800  0.5760E+00  0.5508E+02
  10.810  0.3926E+00  0.5508E+02
  10.820  0.1625E+01  0.5510E+02
  10.830  0.3325E+01  0.5513E+02
  10.840  0.4336E+01  0.5518E+02
  10.850  0.3623E+01  0.5521E+02
  10.860  0.3715E+01  0.5525E+02
  10.870  0.3081E+01  0.5528E+02
  10.880  0.2275E+01  0.5530E+02
  10.890  0.5963E+01  0.5536E+02
  10.900  0.7337E+01  0.5544E+02
  10.910  0.4246E+01  0.5548E+02
  10.920  0.2091E+01  0.5550E+02
  10.930  0.2029E+01  0.5552E+02
  10.940  0.2178E+01  0.5554E+02
  10.950  0.3273E+01  0.5557E+02
  10.960  0.5607E+01  0.5563E+02
  10.970  0.6246E+01  0.5569E+02
  10.980  0.4959E+01  0.5574E+02
  10.990  0.3314E+01  0.5578E+02
  11.000  0.2384E+01  0.5580E+02
  11.010  0.4223E+01  0.5584E+02
  11.020  0.6842E+01  0.5591E+02
  11.030  0.5544E+01  0.5597E+02
  11.040  0.2813E+01  0.5599E+02
  11.050  0.3429E+01  0.5603E+02
  11.060  0.7899E+01  0.5611E+02
  11.070  0.8139E+01  0.5619E+02
  11.080  0.7786E+01  0.5627E+02
  11.090  0.8289E+01  0.5635E+02
  11.100  0.6722E+01  0.5642E+02
  11.110  0.7551E+01  0.5649E+02
  11.120  0.1071E+02  0.5660E+02
  11.130  0.1213E+02  0.5672E+02
  11.140  0.1073E+02  0.5683E+02
  11.150  0.5549E+01  0.5688E+02
  11.160  0.6681E+00  0.5689E+02
  11.170  0.6156E+00  0.5690E+02
  11.180  0.3231E+01  0.5693E+02
  11.190  0.5408E+01  0.5698E+02
  11.200  0.4603E+01  0.5703E+02
  11.210  0.4050E+01  0.5707E+02
  11.220  0.3857E+01  0.5711E+02
  11.230  0.3076E+01  0.5714E+02
  11.240  0.4157E+01  0.5718E+02
  11.250  0.5966E+01  0.5724E+02
  11.260  0.5851E+01  0.5730E+02
  11.270  0.4419E+01  0.5734E+02
  11.280  0.3754E+01  0.5738E+02
  11.290  0.4038E+01  0.5742E+02
  11.300  0.4126E+01  0.5746E+02
  11.310  0.3896E+01  0.5750E+02
  11.320  0.2988E+01  0.5753E+02
  11.330  0.3108E+01  0.5756E+02
  11.340  0.5564E+01  0.5762E+02
  11.350  0.7813E+01  0.5769E+02
  11.360  0.7919E+01  0.5777E+02
  11.370  0.5235E+01  0.5783E+02
  11.380  0.5278E+01  0.5788E+02
  11.390  0.5892E+01  0.5794E+02
  11.400  0.5638E+01  0.5799E+02
  11.410  0.4405E+01  0.5804E+02
  11.420  0.4208E+01  0.5808E+02
  11.430  0.3651E+01  0.5812E+02
  11.440  0.2643E+01  0.5814E+02
  11.450  0.2928E+01  0.5817E+02
  11.460  0.3914E+01  0.5821E+02
  11.470  0.4610E+01  0.5826E+02
  11.480  0.1542E+01  0.5827E+02
  11.490  0.3253E+00  0.5828E+02
  11.500  0.2377E+01  0.5830E+02
  11.510  0.4238E+01  0.5834E+02
  11.520  0.4252E+01  0.5839E+02
  11.530  0.2915E+01  0.5841E+02
  11.540  0.3707E+01  0.5845E+02
  11.550  0.4872E+01  0.5850E+02
  11.560  0.4015E+01  0.5854E+02
  11.570  0.2345E+01  0.5856E+02
  11.580  0.8596E+00  0.5857E+02
  11.590  0.4890E+00  0.5858E+02
  11.600  0.1915E+01  0.5860E+02
  11.610  0.4146E+01  0.5864E+02
  11.620  0.2907E+01  0.5867E+02
  11.630  0.1336E+01  0.5868E+02
  11.640  0.3911E+00  0.5868E+02
  11.650 -0.1917E+00  0.5868E+02
  11.660 -0.5142E-01  0.5868E+02
  11.670  0.4494E+00  0.5869E+02
  11.680  0.1903E+01  0.5871E+02
  11.690  0.2809E+01  0.5873E+02
  11.700  0.1563E+01  0.5875E+02
  11.710  0.1086E+00  0.5875E+02
  11.720  0.6303E-01  0.5875E+02
  11.730  0.1491E+01  0.5877E+02
  11.740  0.2435E+01  0.5879E+02
  11.750  0.1195E+01  0.5880E+02
  11.760  0.1561E+01  0.5882E+02
  11.770  0.1796E+01  0.5884E+02
  11.780  0.6880E+00  0.5884E+02
  11.790  0.9191E+00  0.5885E+02
  11.800  0.7602E+00  0.5886E+02
  11.810  0.1737E+00  0.5886E+02
  11.820  0.1004E+01  0.5887E+02
  11.830  0.1978E+01  0.5889E+02
  11.840  0.2379E+01  0.5891E+02
  11.850  0.1241E+01  0.5893E+02
  11.860 -0.1896E+00  0.5893E+02
  11.870 -0.5433E-01  0.5892E+02
  11.880  0.6904E+00  0.5893E+02
  11.890  0.1260E+01  0.5894E+02
  11.900  0.8316E+00  0.5895E+02
  11.910  0.1054E+01  0.5896E+02
  11.920  0.9537E+00  0.5897E+02
  11.930  0.1624E+01  0.5899E+02
  11.940  0.3053E+01  0.5902E+02
  11.950  0.1707E+01  0.5904E+02
  11.960 -0.2847E-02  0.5904E+02
  11.970  0.2173E+00  0.5904E+02
  11.980  0.1140E+01  0.5905E+02
  11.990  0.8040E+00  0.5906E+02
  12.000  0.5121E+00  0.5906E+02
  12.010  0.1131E+01  0.5907E+02
  12.020  0.4800E+00  0.5908E+02
  12.030 -0.3866E-01  0.5908E+02
  12.040  0.6138E+00  0.5908E+02
  12.050  0.1265E+01  0.5910E+02
  12.060  0.1008E+01  0.5911E+02
  12.070  0.1897E+01  0.5913E+02
  12.080  0.1841E+01  0.5914E+02
  12.090  0.7261E-01  0.5915E+02
  12.100 -0.2161E+00  0.5914E+02
  12.110  0.3096E+00  0.5915E+02
  12.120  0.1698E+01  0.5916E+02
  12.130  0.2410E+01  0.5919E+02
  12.140  0.1223E+01  0.5920E+02
  12.150  0.1420E+01  0.5921E+02
  12.160  0.1503E+01  0.5923E+02
  12.170  0.8836E+00  0.5924E+02
  12.180  0.9944E+00  0.5925E+02
  12.190  0.6952E+00  0.5925E+02
  12.200  0.1138E+00  0.5926E+02
  12.210  0.8290E+00  0.5926E+02
  12.220  0.1119E+01  0.5928E+02
  12.230  0.5702E+00  0.5928E+02
  12.240  0.1691E+01  0.5930E+02
  12.250  0.2104E+01  0.5932E+02
  12.260  0.2857E+00  0.5932E+02
  12.270 -0.2700E+00  0.5932E+02
  12.280 -0.5615E-01  0.5932E+02
  12.290  0.3859E-01  0.5932E+02
  12.300  0.5122E+00  0.5932E+02
  12.310  0.2017E+01  0.5934E+02
  12.320  0.2701E+01  0.5937E+02
  12.330  0.2780E+01  0.5940E+02
  12.340  0.3505E+01  0.5943E+02
  12.350  0.1950E+01  0.5945E+02
  12.360  0.2494E-01  0.5945E+02
  12.370 -0.1720E+00  0.5945E+02
  12.380  0.6215E+00  0.5946E+02
  12.390  0.1241E+01  0.5947E+02
  12.400  0.7768E+00  0.5948E+02
  12.410  0.1365E+01  0.5949E+02
  12.420  0.2024E+01  0.5951E+02
  12.430  0.9205E+00  0.5952E+02
  12.440  0.7033E+00  0.5953E+02
  12.450  0.1057E+01  0.5954E+02
  12.460  0.7180E+00  0.5955E+02
  12.470  0.1986E+01  0.5957E+02
  12.480  0.3023E+01  0.5960E+02
  12.490  0.3034E+01  0.5963E+02
  12.500  0.2275E+01  0.5965E+02
  12.510  0.7279E+00  0.5966E+02
  12.520  0.1270E+01  0.5967E+02
  12.530  0.1955E+01  0.5969E+02
  12.540  0.1446E+01  0.5970E+02
  12.550  0.3174E+01  0.5974E+02
  12.560  0.4475E+01  0.5978E+02
  12.570  0.2566E+01  0.5981E+02
  12.580  0.2903E+01  0.5983E+02
  12.590  0.2080E+01  0.5986E+02
  12.600  0.9862E+00  0.5987E+02
  12.610  0.1089E+01  0.5988E+02
  12.620  0.2043E+01  0.5990E+02
  12.630  0.3001E+01  0.5993E+02
  12.640  0.1252E+01  0.5994E+02
  12.650  0.1240E+00  0.5994E+02
  12.660  0.9949E+00  0.5995E+02
  12.670  0.7668E+00  0.5996E+02
  12.680  0.2389E+00  0.5996E+02
  12.690  0.9972E+00  0.5997E+02
  12.700  0.9120E+00  0.5998E+02
  12.710  0.2216E+00  0.5998E+02
  12.720  0.8748E+00  0.5999E+02
  12.730  0.1018E+01  0.6000E+02
  12.740  0.6434E-01  0.6000E+02
  12.750 -0.1312E+00  0.6000E+02
  12.760 -0.2166E-01  0.6000E+02
  12.770 -0.8769E-03  0.6000E+02
  12.780 -0.1062E-04  0.6000E+02
  12.790 -0.4075E-07  0.6000E+02
  12.800 -0.5088E-10  0.6000E+02
  12.810 -0.2095E-13  0.6000E+02
  12.820 -0.2866E-17  0.6000E+02
  12.830 -0.1310E-21  0.6000E+02
  12.840 -0.2006E-26  0.6000E+02
  12.850 -0.1032E-31  0.6000E+02
  12.860 -0.1788E-37  0.6000E+02
  12.870 -0.1044E-43  0.6000E+02
  12.880 -0.2057E-50  0.6000E+02
  12.890 -0.1368E-57  0.6000E+02
  12.900 -0.3077E-65  0.6000E+02
  12.910 -0.2339E-73  0.6000E+02
  12.920 -0.9505E-80  0.6000E+02
  12.930 -0.9450E-80  0.6000E+02
  12.940 -0.9455E-80  0.6000E+02
  12.950 -0.9460E-80  0.6000E+02
  12.960 -0.9465E-80  0.6000E+02
  12.970 -0.9470E-80  0.6000E+02
  12.980 -0.9475E-80  0.6000E+02
  12.990 -0.9480E-80  0.6000E+02
  13.000 -0.9485E-80  0.6000E+02
  13.010 -0.9490E-80  0.6000E+02
  13.020 -0.9495E-80  0.6000E+02
  13.030 -0.9500E-80  0.6000E+02
  13.040 -0.9505E-80  0.6000E+02
  13.050 -0.9510E-80  0.6000E+02
  13.060 -0.9515E-80  0.6000E+02
  13.070 -0.9520E-80  0.6000E+02
  13.080 -0.9525E-80  0.6000E+02
  13.090 -0.9530E-80  0.6000E+02
  13.100 -0.9535E-80  0.6000E+02
  13.110 -0.9540E-80  0.6000E+02
  13.120 -0.9545E-80  0.6000E+02
  13.130 -0.9550E-80  0.6000E+02
  13.140 -0.9555E-80  0.6000E+02
  13.150 -0.9560E-80  0.6000E+02
  13.160 -0.9565E-80  0.6000E+02
  13.170 -0.9570E-80  0.6000E+02
  13.180 -0.9575E-80  0.6000E+02
  13.190 -0.9580E-80  0.6000E+02
  13.200 -0.9585E-80  0.6000E+02
  13.210 -0.9590E-80  0.6000E+02
  13.220 -0.9595E-80  0.6000E+02
  13.230 -0.9600E-80  0.6000E+02
  13.240 -0.9605E-80  0.6000E+02
  13.250 -0.9610E-80  0.6000E+02
  13.260 -0.9615E-80  0.6000E+02
  13.270 -0.9620E-80  0.6000E+02
  13.280 -0.9625E-80  0.6000E+02
  13.290 -0.9630E-80  0.6000E+02
  13.300 -0.9635E-80  0.6000E+02
  13.310 -0.9640E-80  0.6000E+02
  13.320 -0.9645E-80  0.6000E+02
  13.330 -0.9650E-80  0.6000E+02
  13.340 -0.9655E-80  0.6000E+02
  13.350 -0.9660E-80  0.6000E+02
  13.360 -0.9665E-80  0.6000E+02
  13.370 -0.9670E-80  0.6000E+02
  13.380 -0.9675E-80  0.6000E+02
  13.390 -0.9680E-80  0.6000E+02
  13.400 -0.9685E-80  0.6000E+02
  13.410 -0.9690E-80  0.6000E+02
  13.420 -0.9695E-80  0.6000E+02
  13.430 -0.9700E-80  0.6000E+02
  13.440 -0.9705E-80  0.6000E+02
  13.450 -0.9710E-80  0.6000E+02
  13.460 -0.9715E-80  0.6000E+02
  13.470 -0.9720E-80  0.6000E+02
  13.480 -0.9725E-80  0.6000E+02
  13.490 -0.9731E-80  0.6000E+02
  13.500 -0.9736E-80  0.6000E+02
  13.510 -0.9741E-80  0.6000E+02
  13.520 -0.9746E-80  0.6000E+02
  13.530 -0.9751E-80  0.6000E+02
  13.540 -0.9756E-80  0.6000E+02
  13.550 -0.9761E-80  0.6000E+02
  13.560 -0.9766E-80  0.6000E+02
  13.570 -0.9771E-80  0.6000E+02
  13.580 -0.9776E-80  0.6000E+02
  13.590 -0.9781E-80  0.6000E+02
  13.600 -0.9786E-80  0.6000E+02
  13.610 -0.9791E-80  0.6000E+02
  13.620 -0.9796E-80  0.6000E+02
  13.630 -0.9801E-80  0.6000E+02
  13.640 -0.9806E-80  0.6000E+02
  13.650 -0.9811E-80  0.6000E+02
  13.660 -0.9816E-80  0.6000E+02
  13.670 -0.9821E-80  0.6000E+02
  13.680 -0.9826E-80  0.6000E+02
  13.690 -0.9831E-80  0.6000E+02
  13.700 -0.9836E-80  0.6000E+02
  13.710 -0.9841E-80  0.6000E+02
  13.720 -0.9846E-80  0.6000E+02
  13.730 -0.9851E-80  0.6000E+02
  13.740 -0.9856E-80  0.6000E+02
  13.750 -0.9861E-80  0.6000E+02
  13.760 -0.9866E-80  0.6000E+02
  13.770 -0.9871E-80  0.6000E+02
  13.780 -0.9876E-80  0.6000E+02
  13.790 -0.9881E-80  0.6000E+02
  13.800 -0.9886E-80  0.6000E+02
  13.810 -0.9891E-80  0.6000E+02
  13.820 -0.9896E-80  0.6000E+02
  13.830 -0.9901E-80  0.6000E+02
  13.840 -0.9906E-80  0.6000E+02
  13.850 -0.9911E-80  0.6000E+02
  13.860 -0.9916E-80  0.6000E+02
  13.870 -0.9921E-80  0.6000E+02
  13.880 -0.9926E-80  0.6000E+02
  13.890 -0.9931E-80  0.6000E+02
  13.900 -0.9936E-80  0.6000E+02
  13.910 -0.9941E-80  0.6000E+02
  13.920 -0.9946E-80  0.6000E+02
  13.930 -0.9951E-80  0.6000E+02
  13.940 -0.9956E-80  0.6000E+02
  13.950 -0.9961E-80  0.6000E+02
  13.960 -0.9966E-80  0.6000E+02
  13.970 -0.9971E-80  0.6000E+02
  13.980 -0.9976E-80  0.6000E+02
  13.990 -0.9981E-80  0.6000E+02
  14.000 -0.9986E-80  0.6000E+02
  14.010 -0.9991E-80  0.6000E+02
  14.020 -0.9996E-80  0.6000E+02
  14.030 -0.1000E-79  0.6000E+02
  14.040 -0.1001E-79  0.6000E+02
  14.050 -0.1001E-79  0.6000E+02
  14.060 -0.1002E-79  0.6000E+02
  14.070 -0.1002E-79  0.6000E+02
  14.080 -0.1003E-79  0.6000E+02
  14.090 -0.1003E-79  0.6000E+02
  14.100 -0.1004E-79  0.6000E+02
  14.110 -0.1004E-79  0.6000E+02
  14.120 -0.1005E-79  0.6000E+02
  14.130 -0.1005E-79  0.6000E+02
  14.140 -0.1006E-79  0.6000E+02
  14.150 -0.1006E-79  0.6000E+02
  14.160 -0.1007E-79  0.6000E+02
  14.170 -0.1007E-79  0.6000E+02
  14.180 -0.1008E-79  0.6000E+02
  14.190 -0.1008E-79  0.6000E+02
  14.200 -0.1009E-79  0.6000E+02
  14.210 -0.1009E-79  0.6000E+02
  14.220 -0.1010E-79  0.6000E+02
  14.230 -0.1010E-79  0.6000E+02
  14.240 -0.1011E-79  0.6000E+02
  14.250 -0.1011E-79  0.6000E+02
  14.260 -0.1012E-79  0.6000E+02
  14.270 -0.1012E-79  0.6000E+02
  14.280 -0.1013E-79  0.6000E+02
  14.290 -0.1013E-79  0.6000E+02
  14.300 -0.1014E-79  0.6000E+02
  14.310 -0.1014E-79  0.6000E+02
  14.320 -0.1015E-79  0.6000E+02
  14.330 -0.1015E-79  0.6000E+02
  14.340 -0.1016E-79  0.6000E+02
  14.350 -0.1016E-79  0.6000E+02
  14.360 -0.1017E-79  0.6000E+02
  14.370 -0.1017E-79  0.6000E+02
  14.380 -0.1018E-79  0.6000E+02
  14.390 -0.1018E-79  0.6000E+02
  14.400 -0.1019E-79  0.6000E+02
  14.410 -0.1019E-79  0.6000E+02
  14.420 -0.1020E-79  0.6000E+02
  14.430 -0.1020E-79  0.6000E+02
  14.440 -0.1021E-79  0.6000E+02
  14.450 -0.1021E-79  0.6000E+02
  14.460 -0.1022E-79  0.6000E+02
  14.470 -0.1022E-79  0.6000E+02
  14.480 -0.1023E-79  0.6000E+02
  14.490 -0.1023E-79  0.6000E+02
  14.500 -0.1024E-79  0.6000E+02
  14.510 -0.1024E-79  0.6000E+02
  14.520 -0.1025E-79  0.6000E+02
  14.530 -0.1025E-79  0.6000E+02
  14.540 -0.1026E-79  0.6000E+02
  14.550 -0.1026E-79  0.6000E+02
  14.560 -0.1027E-79  0.6000E+02
  14.570 -0.1027E-79  0.6000E+02
  14.580 -0.1028E-79  0.6000E+02
  14.590 -0.1028E-79  0.6000E+02
  14.600 -0.1029E-79  0.6000E+02
  14.610 -0.1029E-79  0.6000E+02
  14.620 -0.1030E-79  0.6000E+02
  14.630 -0.1030E-79  0.6000E+02
  14.640 -0.1031E-79  0.6000E+02
  14.650 -0.1031E-79  0.6000E+02
  14.660 -0.1032E-79  0.6000E+02
  14.670 -0.1032E-79  0.6000E+02
  14.680 -0.1033E-79  0.6000E+02
  14.690 -0.1033E-79  0.6000E+02
  14.700 -0.1034E-79  0.6000E+02
  14.710 -0.1034E-79  0.6000E+02
  14.720 -0.1035E-79  0.6000E+02
  14.730 -0.1035E-79  0.6000E+02
  14.740 -0.1036E-79  0.6000E+02
  14.750 -0.1036E-79  0.6000E+02
  14.760 -0.1037E-79  0.6000E+02
  14.770 -0.1037E-79  0.6000E+02
  14.780 -0.1038E-79  0.6000E+02
  14.790 -0.1038E-79  0.6000E+02
  14.800 -0.1039E-79  0.6000E+02
  14.810 -0.1039E-79  0.6000E+02
  14.820 -0.1040E-79  0.6000E+02
  14.830 -0.1040E-79  0.6000E+02
  14.840 -0.1041E-79  0.6000E+02
  14.850 -0.1041E-79  0.6000E+02
  14.860 -0.1042E-79  0.6000E+02
  14.870 -0.1042E-79  0.6000E+02
  14.880 -0.1043E-79  0.6000E+02
  14.890 -0.1043E-79  0.6000E+02
  14.900 -0.1044E-79  0.6000E+02
  14.910 -0.1044E-79  0.6000E+02
  14.920 -0.1045E-79  0.6000E+02
  14.930 -0.1045E-79  0.6000E+02
  14.940 -0.1046E-79  0.6000E+02
  14.950 -0.1046E-79  0.6000E+02
  14.960 -0.1047E-79  0.6000E+02
  14.970 -0.1047E-79  0.6000E+02
  14.980 -0.1048E-79  0.6000E+02
  14.990 -0.1048E-79  0.6000E+02
  15.000 -0.1049E-79  0.6000E+02
  15.010 -0.1049E-79  0.6000E+02
  15.020 -0.1050E-79  0.6000E+02
  15.030 -0.1050E-79  0.6000E+02
  15.040 -0.1051E-79  0.6000E+02
  15.050 -0.1051E-79  0.6000E+02
  15.060 -0.1052E-79  0.6000E+02
  15.070 -0.1052E-79  0.6000E+02
  15.080 -0.1053E-79  0.6000E+02
  15.090 -0.1053E-79  0.6000E+02
  15.100 -0.1054E-79  0.6000E+02
  15.110 -0.1054E-79  0.6000E+02
  15.120 -0.1055E-79  0.6000E+02
  15.130 -0.1055E-79  0.6000E+02
  15.140 -0.1056E-79  0.6000E+02
  15.150 -0.1056E-79  0.6000E+02
  15.160 -0.1057E-79  0.6000E+02
  15.170 -0.1057E-79  0.6000E+02
  15.180 -0.1058E-79  0.6000E+02
  15.190 -0.1058E-79  0.6000E+02
  15.200 -0.1059E-79  0.6000E+02
  15.210 -0.1059E-79  0.6000E+02
  15.220 -0.1060E-79  0.6000E+02
  15.230 -0.1060E-79  0.6000E+02
  15.240 -0.1061E-79  0.6000E+02
  15.250 -0.1061E-79  0.6000E+02
  15.260 -0.1062E-79  0.6000E+02
  15.270 -0.1062E-79  0.6000E+02
  15.280 -0.1063E-79  0.6000E+02
  15.290 -0.1063E-79  0.6000E+02
  15.300 -0.1064E-79  0.6000E+02
  15.310 -0.1064E-79  0.6000E+02
  15.320 -0.1065E-79  0.6000E+02
  15.330 -0.1065E-79  0.6000E+02
  15.340 -0.1066E-79  0.6000E+02
  15.350 -0.1066E-79  0.6000E+02
  15.360 -0.1067E-79  0.6000E+02
  15.370 -0.1067E-79  0.6000E+02
  15.380 -0.1068E-79  0.6000E+02
  15.390 -0.1068E-79  0.6000E+02
  15.400 -0.1069E-79  0.6000E+02
  15.410 -0.1069E-79  0.6000E+02
  15.420 -0.1070E-79  0.6000E+02
  15.430 -0.1070E-79  0.6000E+02
  15.440 -0.1071E-79  0.6000E+02
  15.450 -0.1071E-79  0.6000E+02
  15.460 -0.1072E-79  0.6000E+02
  15.470 -0.1072E-79  0.6000E+02
  15.480 -0.1073E-79  0.6000E+02
  15.490 -0.1073E-79  0.6000E+02
  15.500 -0.1074E-79  0.6000E+02
  15.510 -0.1074E-79  0.6000E+02
  15.520 -0.1075E-79  0.6000E+02
  15.530 -0.1075E-79  0.6000E+02
  15.540 -0.1076E-79  0.6000E+02
  15.550 -0.1076E-79  0.6000E+02
  15.560 -0.1077E-79  0.6000E+02
  15.570 -0.1077E-79  0.6000E+02
  15.580 -0.1078E-79  0.6000E+02
  15.590 -0.1078E-79  0.6000E+02
  15.600 -0.1079E-79  0.6000E+02
  15.610 -0.1079E-79  0.6000E+02
  15.620 -0.1080E-79  0.6000E+02
  15.630 -0.1080E-79  0.6000E+02
  15.640 -0.1081E-79  0.6000E+02
  15.650 -0.1081E-79  0.6000E+02
  15.660 -0.1082E-79  0.6000E+02
  15.670 -0.1082E-79  0.6000E+02
  15.680 -0.1083E-79  0.6000E+02
  15.690 -0.1083E-79  0.6000E+02
  15.700 -0.1084E-79  0.6000E+02
  15.710 -0.1084E-79  0.6000E+02
  15.720 -0.1085E-79  0.6000E+02
  15.730 -0.1085E-79  0.6000E+02
  15.740 -0.1086E-79  0.6000E+02
  15.750 -0.1086E-79  0.6000E+02
  15.760 -0.1087E-79  0.6000E+02
  15.770 -0.1087E-79  0.6000E+02
  15.780 -0.1088E-79  0.6000E+02
  15.790 -0.1088E-79  0.6000E+02
  15.800 -0.1089E-79  0.6000E+02
  15.810 -0.1089E-79  0.6000E+02
  15.820 -0.1090E-79  0.6000E+02
  15.830 -0.1090E-79  0.6000E+02
  15.840 -0.1091E-79  0.6000E+02
  15.850 -0.1091E-79  0.6000E+02
  15.860 -0.1092E-79  0.6000E+02
  15.870 -0.1092E-79  0.6000E+02
  15.880 -0.1093E-79  0.6000E+02
  15.890 -0.1093E-79  0.6000E+02
  15.900 -0.1094E-79  0.6000E+02
  15.910 -0.1094E-79  0.6000E+02
  15.920 -0.1095E-79  0.6000E+02
  15.930 -0.1095E-79  0.6000E+02
  15.940 -0.1096E-79  0.6000E+02
  15.950 -0.1096E-79  0.6000E+02
  15.960 -0.1097E-79  0.6000E+02
  15.970 -0.1097E-79  0.6000E+02
  15.980 -0.1098E-79  0.6000E+02
  15.990 -0.1098E-79  0.6000E+02
  16.000 -0.1099E-79  0.6000E+02
