#  E (eV)   dos(E)     Int dos(E) EFermi =    0.961 eV
  -9.000 -0.2367E-80 -0.2367E-82
  -8.990 -0.2372E-80 -0.4739E-82
  -8.980 -0.2377E-80 -0.7116E-82
  -8.970 -0.2382E-80 -0.9498E-82
  -8.960 -0.2387E-80 -0.1189E-81
  -8.950 -0.2392E-80 -0.1428E-81
  -8.940 -0.2397E-80 -0.1667E-81
  -8.930 -0.2402E-80 -0.1908E-81
  -8.920 -0.2407E-80 -0.2148E-81
  -8.910 -0.2412E-80 -0.2390E-81
  -8.900 -0.2417E-80 -0.2631E-81
  -8.890 -0.2422E-80 -0.2874E-81
  -8.880 -0.2427E-80 -0.3116E-81
  -8.870 -0.2432E-80 -0.3360E-81
  -8.860 -0.2437E-80 -0.3603E-81
  -8.850 -0.2442E-80 -0.3847E-81
  -8.840 -0.2447E-80 -0.4092E-81
  -8.830 -0.2452E-80 -0.4337E-81
  -8.820 -0.2457E-80 -0.4583E-81
  -8.810 -0.2462E-80 -0.4829E-81
  -8.800 -0.2467E-80 -0.5076E-81
  -8.790 -0.2472E-80 -0.5323E-81
  -8.780 -0.2477E-80 -0.5571E-81
  -8.770 -0.2482E-80 -0.5819E-81
  -8.760 -0.2487E-80 -0.6068E-81
  -8.750 -0.2492E-80 -0.6317E-81
  -8.740 -0.2497E-80 -0.6567E-81
  -8.730 -0.2502E-80 -0.6817E-81
  -8.720 -0.2507E-80 -0.7068E-81
  -8.710 -0.2512E-80 -0.7319E-81
  -8.700 -0.2517E-80 -0.7571E-81
  -8.690 -0.2522E-80 -0.7823E-81
  -8.680 -0.2527E-80 -0.8076E-81
  -8.670 -0.2532E-80 -0.8329E-81
  -8.660 -0.2537E-80 -0.8583E-81
  -8.650 -0.2542E-80 -0.8837E-81
  -8.640 -0.2547E-80 -0.9092E-81
  -8.630 -0.2552E-80 -0.9347E-81
  -8.620 -0.2557E-80 -0.9603E-81
  -8.610 -0.2562E-80 -0.9859E-81
  -8.600 -0.2568E-80 -0.1012E-80
  -8.590 -0.2573E-80 -0.1037E-80
  -8.580 -0.2578E-80 -0.1063E-80
  -8.570 -0.2583E-80 -0.1089E-80
  -8.560 -0.2588E-80 -0.1115E-80
  -8.550 -0.2593E-80 -0.1141E-80
  -8.540 -0.2598E-80 -0.1167E-80
  -8.530 -0.2603E-80 -0.1193E-80
  -8.520 -0.2608E-80 -0.1219E-80
  -8.510 -0.2613E-80 -0.1245E-80
  -8.500 -0.2618E-80 -0.1271E-80
  -8.490 -0.2623E-80 -0.1297E-80
  -8.480 -0.2628E-80 -0.1324E-80
  -8.470 -0.2633E-80 -0.1350E-80
  -8.460 -0.2638E-80 -0.1376E-80
  -8.450 -0.2643E-80 -0.1403E-80
  -8.440  0.4696E-78  0.3293E-80
  -8.430  0.1189E-69  0.1189E-71
  -8.420  0.1014E-61  0.1014E-63
  -8.410  0.2923E-54  0.2923E-56
  -8.400  0.2851E-47  0.2851E-49
  -8.390  0.9398E-41  0.9398E-43
  -8.380  0.1047E-34  0.1047E-36
  -8.370  0.3935E-29  0.3935E-31
  -8.360  0.4989E-24  0.4989E-26
  -8.350  0.2131E-19  0.2131E-21
  -8.340  0.3061E-15  0.3062E-17
  -8.330  0.1476E-11  0.1476E-13
  -8.320  0.2383E-08  0.2384E-10
  -8.310  0.1283E-05  0.1286E-07
  -8.300  0.2294E-03  0.2307E-05
  -8.290  0.1355E-01  0.1378E-03
  -8.280  0.2633E+00  0.2771E-02
  -8.270  0.1699E+01  0.1976E-01
  -8.260  0.3790E+01  0.5766E-01
  -8.250  0.3076E+01  0.8842E-01
  -8.240  0.7946E+00  0.9637E-01
  -8.230  0.9050E+00  0.1054E+00
  -8.220  0.1759E+01  0.1230E+00
  -8.210  0.1076E+01  0.1338E+00
  -8.200  0.1276E+00  0.1350E+00
  -8.190  0.5839E+00  0.1409E+00
  -8.180  0.1194E+01  0.1528E+00
  -8.170  0.6022E+00  0.1588E+00
  -8.160  0.8762E+00  0.1676E+00
  -8.150  0.9464E+00  0.1771E+00
  -8.140  0.1221E+00  0.1783E+00
  -8.130  0.5208E+00  0.1835E+00
  -8.120  0.1198E+01  0.1955E+00
  -8.110  0.4408E+00  0.1999E+00
  -8.100 -0.1308E+00  0.1986E+00
  -8.090  0.1779E+00  0.2004E+00
  -8.080  0.9613E+00  0.2100E+00
  -8.070  0.1067E+01  0.2206E+00
  -8.060  0.2724E+00  0.2234E+00
  -8.050  0.7456E+00  0.2308E+00
  -8.040  0.1102E+01  0.2418E+00
  -8.030  0.1686E+00  0.2435E+00
  -8.020 -0.1449E+00  0.2421E+00
  -8.010 -0.3009E-01  0.2418E+00
  -8.000  0.8571E-02  0.2419E+00
  -7.990  0.1645E+00  0.2435E+00
  -7.980  0.8371E+00  0.2519E+00
  -7.970  0.1269E+01  0.2646E+00
  -7.960  0.9162E+00  0.2737E+00
  -7.950  0.1060E+01  0.2843E+00
  -7.940  0.3435E+00  0.2878E+00
  -7.930 -0.1531E+00  0.2862E+00
  -7.920 -0.4940E-01  0.2857E+00
  -7.910 -0.3170E-02  0.2857E+00
  -7.900 -0.5756E-04  0.2857E+00
  -7.890  0.1448E-03  0.2857E+00
  -7.880  0.8374E-02  0.2858E+00
  -7.870  0.1618E+00  0.2874E+00
  -7.860  0.1048E+01  0.2979E+00
  -7.850  0.2218E+01  0.3201E+00
  -7.840  0.1273E+01  0.3328E+00
  -7.830 -0.1275E+00  0.3315E+00
  -7.820 -0.1647E+00  0.3299E+00
  -7.810 -0.2080E-01  0.3297E+00
  -7.800 -0.7305E-03  0.3297E+00
  -7.790 -0.7993E-05  0.3297E+00
  -7.780  0.3263E-07  0.3297E+00
  -7.770  0.1680E-04  0.3297E+00
  -7.760  0.1529E-02  0.3297E+00
  -7.750  0.4542E-01  0.3301E+00
  -7.740  0.4365E+00  0.3345E+00
  -7.730  0.1387E+01  0.3484E+00
  -7.720  0.1709E+01  0.3655E+00
  -7.710  0.9808E+00  0.3753E+00
  -7.700  0.6567E-02  0.3753E+00
  -7.690 -0.1463E+00  0.3739E+00
  -7.680 -0.2469E-01  0.3736E+00
  -7.670 -0.1052E-02  0.3736E+00
  -7.660 -0.1343E-04  0.3736E+00
  -7.650  0.2369E-06  0.3736E+00
  -7.640  0.6029E-04  0.3736E+00
  -7.630  0.4098E-02  0.3737E+00
  -7.620  0.9000E-01  0.3746E+00
  -7.610  0.6178E+00  0.3807E+00
  -7.600  0.1218E+01  0.3929E+00
  -7.590  0.4837E+00  0.3978E+00
  -7.580 -0.1315E-01  0.3976E+00
  -7.570  0.6903E+00  0.4045E+00
  -7.560  0.1189E+01  0.4164E+00
  -7.550  0.3128E+00  0.4196E+00
  -7.540 -0.1521E+00  0.4180E+00
  -7.530 -0.4309E-01  0.4176E+00
  -7.520 -0.2539E-02  0.4176E+00
  -7.510 -0.3662E-04  0.4176E+00
  -7.500  0.7410E-03  0.4176E+00
  -7.490  0.2678E-01  0.4179E+00
  -7.480  0.3077E+00  0.4209E+00
  -7.470  0.1066E+01  0.4316E+00
  -7.460  0.9366E+00  0.4410E+00
  -7.450 -0.6222E-02  0.4409E+00
  -7.440 -0.1169E+00  0.4397E+00
  -7.430 -0.1468E-01  0.4396E+00
  -7.420  0.4170E-01  0.4400E+00
  -7.410  0.4048E+00  0.4440E+00
  -7.400  0.1152E+01  0.4556E+00
  -7.390  0.7824E+00  0.4634E+00
  -7.380 -0.7934E-01  0.4626E+00
  -7.370 -0.9554E-01  0.4616E+00
  -7.360 -0.8659E-02  0.4616E+00
  -7.350  0.4852E-01  0.4620E+00
  -7.340  0.4403E+00  0.4664E+00
  -7.330  0.1174E+01  0.4782E+00
  -7.320  0.7280E+00  0.4855E+00
  -7.310 -0.9732E-01  0.4845E+00
  -7.300 -0.8854E-01  0.4836E+00
  -7.290 -0.8911E-02  0.4835E+00
  -7.280 -0.2426E-03  0.4835E+00
  -7.270  0.4991E-06  0.4835E+00
  -7.260  0.3425E-03  0.4835E+00
  -7.250  0.1518E-01  0.4837E+00
  -7.240  0.2154E+00  0.4858E+00
  -7.230  0.9342E+00  0.4952E+00
  -7.220  0.1088E+01  0.5060E+00
  -7.210  0.2183E+00  0.5082E+00
  -7.200  0.5240E+00  0.5135E+00
  -7.190  0.1189E+01  0.5254E+00
  -7.180  0.4174E+00  0.5295E+00
  -7.170 -0.1495E+00  0.5280E+00
  -7.160 -0.5340E-01  0.5275E+00
  -7.150 -0.3611E-02  0.5275E+00
  -7.140 -0.6965E-04  0.5275E+00
  -7.130 -0.4185E-06  0.5275E+00
  -7.120  0.3019E-06  0.5275E+00
  -7.110  0.7090E-04  0.5275E+00
  -7.100  0.5646E-02  0.5275E+00
  -7.090  0.1532E+00  0.5291E+00
  -7.080  0.1428E+01  0.5433E+00
  -7.070  0.4708E+01  0.5904E+00
  -7.060  0.6066E+01  0.6511E+00
  -7.050  0.4241E+01  0.6935E+00
  -7.040  0.2831E+01  0.7218E+00
  -7.030  0.1919E+01  0.7410E+00
  -7.020  0.1317E+01  0.7542E+00
  -7.010  0.1496E+01  0.7691E+00
  -7.000  0.1925E+01  0.7884E+00
  -6.990  0.8176E+00  0.7965E+00
  -6.980  0.9820E+00  0.8064E+00
  -6.970  0.2231E+01  0.8287E+00
  -6.960  0.1182E+01  0.8405E+00
  -6.950  0.8159E+00  0.8486E+00
  -6.940  0.2609E+01  0.8747E+00
  -6.930  0.2643E+01  0.9012E+00
  -6.920  0.4304E+00  0.9055E+00
  -6.910 -0.1772E+00  0.9037E+00
  -6.900  0.1085E+01  0.9145E+00
  -6.890  0.2442E+01  0.9390E+00
  -6.880  0.1237E+01  0.9513E+00
  -6.870  0.6648E+00  0.9580E+00
  -6.860  0.1653E+01  0.9745E+00
  -6.850  0.2970E+01  0.1004E+01
  -6.840  0.3070E+01  0.1035E+01
  -6.830  0.3025E+00  0.1038E+01
  -6.820 -0.2914E+00  0.1035E+01
  -6.810  0.7649E+00  0.1043E+01
  -6.800  0.2014E+01  0.1063E+01
  -6.790  0.1750E+01  0.1080E+01
  -6.780  0.1126E+01  0.1092E+01
  -6.770  0.1712E+01  0.1109E+01
  -6.760  0.1376E+01  0.1122E+01
  -6.750  0.8637E+00  0.1131E+01
  -6.740  0.2782E+01  0.1159E+01
  -6.730  0.3775E+01  0.1197E+01
  -6.720  0.1529E+01  0.1212E+01
  -6.710 -0.1805E-01  0.1212E+01
  -6.700  0.7490E-02  0.1212E+01
  -6.690  0.1244E+01  0.1224E+01
  -6.680  0.2263E+01  0.1247E+01
  -6.670  0.9422E+00  0.1256E+01
  -6.660 -0.2213E+00  0.1254E+01
  -6.650 -0.1249E+00  0.1253E+01
  -6.640  0.2816E-02  0.1253E+01
  -6.630  0.2104E+00  0.1255E+01
  -6.620  0.9258E+00  0.1264E+01
  -6.610  0.1090E+01  0.1275E+01
  -6.600  0.1234E+00  0.1276E+01
  -6.590 -0.1398E+00  0.1275E+01
  -6.580 -0.2527E-01  0.1275E+01
  -6.570  0.3569E-01  0.1275E+01
  -6.560  0.3734E+00  0.1279E+01
  -6.550  0.1129E+01  0.1290E+01
  -6.540  0.8336E+00  0.1298E+01
  -6.530 -0.3428E-02  0.1298E+01
  -6.520  0.3769E+00  0.1302E+01
  -6.510  0.1181E+01  0.1314E+01
  -6.500  0.7041E+00  0.1321E+01
  -6.490  0.2457E+00  0.1324E+01
  -6.480  0.1036E+01  0.1334E+01
  -6.470  0.8471E+00  0.1342E+01
  -6.460 -0.4990E-01  0.1342E+01
  -6.450 -0.1053E+00  0.1341E+01
  -6.440 -0.1242E-01  0.1341E+01
  -6.430  0.1272E-01  0.1341E+01
  -6.420  0.1960E+00  0.1343E+01
  -6.410  0.8981E+00  0.1352E+01
  -6.400  0.1112E+01  0.1363E+01
  -6.390  0.1512E+00  0.1364E+01
  -6.380 -0.1429E+00  0.1363E+01
  -6.370 -0.2149E-01  0.1363E+01
  -6.360  0.1326E+00  0.1364E+01
  -6.350  0.7997E+00  0.1372E+01
  -6.340  0.1635E+01  0.1388E+01
  -6.330  0.1487E+01  0.1403E+01
  -6.320  0.5734E+00  0.1409E+01
  -6.310 -0.1411E+00  0.1408E+01
  -6.300 -0.9075E-01  0.1407E+01
  -6.290 -0.8834E-02  0.1407E+01
  -6.280  0.3757E-02  0.1407E+01
  -6.270  0.8848E-01  0.1408E+01
  -6.260  0.6122E+00  0.1414E+01
  -6.250  0.1218E+01  0.1426E+01
  -6.240  0.4838E+00  0.1431E+01
  -6.230 -0.1443E+00  0.1429E+01
  -6.220 -0.5913E-01  0.1429E+01
  -6.210  0.3009E-01  0.1429E+01
  -6.200  0.3632E+00  0.1433E+01
  -6.190  0.1216E+01  0.1445E+01
  -6.180  0.1507E+01  0.1460E+01
  -6.170  0.1167E+01  0.1471E+01
  -6.160  0.3271E+00  0.1475E+01
  -6.150 -0.1613E+00  0.1473E+01
  -6.140 -0.5522E-01  0.1473E+01
  -6.130 -0.3727E-02  0.1473E+01
  -6.120  0.3441E-02  0.1473E+01
  -6.110  0.8097E-01  0.1473E+01
  -6.100  0.5840E+00  0.1479E+01
  -6.090  0.1217E+01  0.1491E+01
  -6.080  0.5223E+00  0.1497E+01
  -6.070 -0.1162E+00  0.1495E+01
  -6.060  0.2229E+00  0.1498E+01
  -6.050  0.1036E+01  0.1508E+01
  -6.040  0.9713E+00  0.1518E+01
  -6.030  0.6699E-01  0.1518E+01
  -6.020  0.3338E+00  0.1522E+01
  -6.010  0.1164E+01  0.1533E+01
  -6.000  0.7043E+00  0.1540E+01
  -5.990 -0.1040E+00  0.1539E+01
  -5.980 -0.8565E-01  0.1539E+01
  -5.970 -0.8351E-02  0.1538E+01
  -5.960  0.6459E-03  0.1538E+01
  -5.950  0.3212E-01  0.1539E+01
  -5.940  0.3986E+00  0.1543E+01
  -5.930  0.1647E+01  0.1559E+01
  -5.920  0.2128E+01  0.1581E+01
  -5.910  0.5272E+00  0.1586E+01
  -5.900 -0.2501E+00  0.1583E+01
  -5.890 -0.8208E-01  0.1582E+01
  -5.880 -0.5469E-02  0.1582E+01
  -5.870  0.1632E-01  0.1583E+01
  -5.860  0.2267E+00  0.1585E+01
  -5.850  0.9536E+00  0.1594E+01
  -5.840  0.1069E+01  0.1605E+01
  -5.830  0.1655E+00  0.1607E+01
  -5.820  0.3997E+00  0.1611E+01
  -5.810  0.1186E+01  0.1623E+01
  -5.800  0.5874E+00  0.1628E+01
  -5.790 -0.1182E+00  0.1627E+01
  -5.780  0.1130E+00  0.1628E+01
  -5.770  0.8693E+00  0.1637E+01
  -5.760  0.1129E+01  0.1648E+01
  -5.750  0.1748E+00  0.1650E+01
  -5.740 -0.1328E+00  0.1649E+01
  -5.730  0.1594E+00  0.1650E+01
  -5.720  0.8860E+00  0.1659E+01
  -5.710  0.1170E+01  0.1671E+01
  -5.700  0.9234E+00  0.1680E+01
  -5.690  0.3697E+01  0.1717E+01
  -5.680  0.6477E+01  0.1782E+01
  -5.670  0.4417E+01  0.1826E+01
  -5.660  0.2467E+01  0.1851E+01
  -5.650  0.2589E+01  0.1877E+01
  -5.640  0.2765E+01  0.1904E+01
  -5.630  0.2727E+01  0.1932E+01
  -5.620  0.2901E+01  0.1961E+01
  -5.610  0.3116E+01  0.1992E+01
  -5.600  0.1711E+01  0.2009E+01
  -5.590  0.8428E+00  0.2017E+01
  -5.580  0.1455E+01  0.2032E+01
  -5.570  0.2133E+01  0.2053E+01
  -5.560  0.2767E+01  0.2081E+01
  -5.550  0.1884E+01  0.2100E+01
  -5.540  0.3003E+01  0.2130E+01
  -5.530  0.5121E+01  0.2181E+01
  -5.520  0.3982E+01  0.2221E+01
  -5.510  0.2839E+01  0.2249E+01
  -5.500  0.2243E+01  0.2272E+01
  -5.490  0.3505E+01  0.2307E+01
  -5.480  0.2882E+01  0.2335E+01
  -5.470  0.1793E+01  0.2353E+01
  -5.460  0.2512E+01  0.2378E+01
  -5.450  0.2740E+01  0.2406E+01
  -5.440  0.2587E+01  0.2432E+01
  -5.430  0.3052E+01  0.2462E+01
  -5.420  0.3459E+01  0.2497E+01
  -5.410  0.2604E+01  0.2523E+01
  -5.400  0.1008E+01  0.2533E+01
  -5.390  0.1272E+01  0.2546E+01
  -5.380  0.3488E+01  0.2581E+01
  -5.370  0.2811E+01  0.2609E+01
  -5.360  0.2822E+01  0.2637E+01
  -5.350  0.4294E+01  0.2680E+01
  -5.340  0.3230E+01  0.2712E+01
  -5.330  0.1585E+01  0.2728E+01
  -5.320  0.1304E+01  0.2741E+01
  -5.310  0.3227E+01  0.2773E+01
  -5.300  0.4073E+01  0.2814E+01
  -5.290  0.4230E+01  0.2856E+01
  -5.280  0.4234E+01  0.2899E+01
  -5.270  0.3008E+01  0.2929E+01
  -5.260  0.2530E+01  0.2954E+01
  -5.250  0.3002E+01  0.2984E+01
  -5.240  0.2666E+01  0.3011E+01
  -5.230  0.3228E+01  0.3043E+01
  -5.220  0.3374E+01  0.3077E+01
  -5.210  0.4128E+01  0.3118E+01
  -5.200  0.6717E+01  0.3185E+01
  -5.190  0.5698E+01  0.3242E+01
  -5.180  0.1540E+01  0.3258E+01
  -5.170 -0.1107E+00  0.3256E+01
  -5.160  0.3333E-01  0.3257E+01
  -5.150  0.1531E+01  0.3272E+01
  -5.140  0.2402E+01  0.3296E+01
  -5.130  0.1075E+01  0.3307E+01
  -5.120  0.1535E+01  0.3322E+01
  -5.110  0.4510E+01  0.3367E+01
  -5.100  0.9082E+01  0.3458E+01
  -5.090  0.7263E+01  0.3531E+01
  -5.080  0.2739E+01  0.3558E+01
  -5.070  0.1390E+01  0.3572E+01
  -5.060  0.1180E+01  0.3584E+01
  -5.050  0.1213E+01  0.3596E+01
  -5.040  0.1281E+01  0.3609E+01
  -5.030  0.1721E+01  0.3626E+01
  -5.020  0.2303E+01  0.3649E+01
  -5.010  0.1381E+01  0.3663E+01
  -5.000  0.9333E+00  0.3672E+01
  -4.990  0.7132E+00  0.3679E+01
  -4.980  0.1146E+01  0.3691E+01
  -4.970  0.1196E+01  0.3703E+01
  -4.960  0.2088E+01  0.3724E+01
  -4.950  0.1676E+01  0.3740E+01
  -4.940  0.4703E+00  0.3745E+01
  -4.930  0.1023E+01  0.3755E+01
  -4.920  0.7287E+00  0.3763E+01
  -4.910  0.1119E+01  0.3774E+01
  -4.900  0.2265E+01  0.3796E+01
  -4.890  0.1292E+01  0.3809E+01
  -4.880  0.8510E+00  0.3818E+01
  -4.870  0.8752E+00  0.3827E+01
  -4.860  0.6887E+00  0.3834E+01
  -4.850  0.2063E+01  0.3854E+01
  -4.840  0.3064E+01  0.3885E+01
  -4.830  0.3988E+01  0.3925E+01
  -4.820  0.4358E+01  0.3968E+01
  -4.810  0.3913E+01  0.4007E+01
  -4.800  0.3923E+01  0.4047E+01
  -4.790  0.3266E+01  0.4079E+01
  -4.780  0.3994E+01  0.4119E+01
  -4.770  0.3700E+01  0.4156E+01
  -4.760  0.2373E+01  0.4180E+01
  -4.750  0.1657E+01  0.4197E+01
  -4.740  0.2279E+01  0.4219E+01
  -4.730  0.4159E+01  0.4261E+01
  -4.720  0.5170E+01  0.4313E+01
  -4.710  0.8499E+01  0.4398E+01
  -4.700  0.1282E+02  0.4526E+01
  -4.690  0.1198E+02  0.4645E+01
  -4.680  0.9491E+01  0.4740E+01
  -4.670  0.8411E+01  0.4825E+01
  -4.660  0.8475E+01  0.4909E+01
  -4.650  0.9292E+01  0.5002E+01
  -4.640  0.8875E+01  0.5091E+01
  -4.630  0.5124E+01  0.5142E+01
  -4.620  0.2418E+01  0.5166E+01
  -4.610  0.1864E+01  0.5185E+01
  -4.600  0.1636E+01  0.5201E+01
  -4.590  0.1348E+01  0.5215E+01
  -4.580  0.1361E+01  0.5228E+01
  -4.570  0.1792E+01  0.5246E+01
  -4.560  0.3852E+01  0.5285E+01
  -4.550  0.6314E+01  0.5348E+01
  -4.540  0.6659E+01  0.5415E+01
  -4.530  0.4736E+01  0.5462E+01
  -4.520  0.3515E+01  0.5497E+01
  -4.510  0.6565E+01  0.5563E+01
  -4.500  0.9446E+01  0.5657E+01
  -4.490  0.5059E+01  0.5708E+01
  -4.480  0.5751E+00  0.5714E+01
  -4.470  0.1340E+01  0.5727E+01
  -4.460  0.2229E+01  0.5749E+01
  -4.450  0.2594E+01  0.5775E+01
  -4.440  0.1712E+01  0.5792E+01
  -4.430  0.9489E+00  0.5802E+01
  -4.420  0.4152E+00  0.5806E+01
  -4.410  0.6822E+00  0.5813E+01
  -4.400  0.1789E+01  0.5831E+01
  -4.390  0.2943E+01  0.5860E+01
  -4.380  0.3790E+01  0.5898E+01
  -4.370  0.1890E+01  0.5917E+01
  -4.360 -0.6168E-01  0.5916E+01
  -4.350  0.3849E+00  0.5920E+01
  -4.340  0.1220E+01  0.5932E+01
  -4.330  0.9031E+00  0.5941E+01
  -4.320  0.1629E+01  0.5958E+01
  -4.310  0.2688E+01  0.5985E+01
  -4.300  0.1774E+01  0.6002E+01
  -4.290  0.1743E+00  0.6004E+01
  -4.280  0.4531E+00  0.6009E+01
  -4.270  0.1501E+01  0.6024E+01
  -4.260  0.1554E+01  0.6039E+01
  -4.250  0.1233E+01  0.6051E+01
  -4.240  0.1568E+01  0.6067E+01
  -4.230  0.1831E+01  0.6085E+01
  -4.220  0.7069E+00  0.6093E+01
  -4.210  0.5852E+00  0.6098E+01
  -4.200  0.1087E+01  0.6109E+01
  -4.190  0.2592E+00  0.6112E+01
  -4.180 -0.1296E+00  0.6111E+01
  -4.170  0.2977E+00  0.6113E+01
  -4.160  0.1879E+01  0.6132E+01
  -4.150  0.3935E+01  0.6172E+01
  -4.140  0.2866E+01  0.6200E+01
  -4.130  0.1998E+00  0.6202E+01
  -4.120 -0.3634E+00  0.6199E+01
  -4.110 -0.8134E-01  0.6198E+01
  -4.100  0.1739E-02  0.6198E+01
  -4.090  0.1305E+00  0.6199E+01
  -4.080  0.8714E+00  0.6208E+01
  -4.070  0.2098E+01  0.6229E+01
  -4.060  0.2242E+01  0.6251E+01
  -4.050  0.1467E+01  0.6266E+01
  -4.040  0.9169E+00  0.6275E+01
  -4.030  0.9999E+00  0.6285E+01
  -4.020  0.2998E+00  0.6288E+01
  -4.010  0.2315E+00  0.6290E+01
  -4.000  0.1149E+01  0.6302E+01
  -3.990  0.1276E+01  0.6315E+01
  -3.980  0.1120E+01  0.6326E+01
  -3.970  0.6375E+00  0.6332E+01
  -3.960  0.3069E+00  0.6335E+01
  -3.950  0.1084E+01  0.6346E+01
  -3.940  0.8118E+00  0.6354E+01
  -3.930  0.4656E+00  0.6359E+01
  -3.920  0.1386E+01  0.6373E+01
  -3.910  0.1834E+01  0.6391E+01
  -3.900  0.1932E+01  0.6410E+01
  -3.890  0.9866E+00  0.6420E+01
  -3.880 -0.1083E+00  0.6419E+01
  -3.870 -0.1382E+00  0.6418E+01
  -3.860  0.1667E+00  0.6420E+01
  -3.850  0.1257E+01  0.6432E+01
  -3.840  0.2450E+01  0.6457E+01
  -3.830  0.1141E+01  0.6468E+01
  -3.820  0.6443E+00  0.6474E+01
  -3.810  0.9659E+00  0.6484E+01
  -3.800  0.1316E+00  0.6485E+01
  -3.790  0.1788E+00  0.6487E+01
  -3.780  0.1192E+01  0.6499E+01
  -3.770  0.1732E+01  0.6516E+01
  -3.760  0.1205E+01  0.6529E+01
  -3.750  0.6317E+00  0.6535E+01
  -3.740  0.1778E+01  0.6553E+01
  -3.730  0.2032E+01  0.6573E+01
  -3.720  0.1623E+00  0.6575E+01
  -3.710 -0.2077E+00  0.6572E+01
  -3.700  0.4278E+00  0.6577E+01
  -3.690  0.1194E+01  0.6589E+01
  -3.680  0.7893E+00  0.6597E+01
  -3.670  0.6292E+00  0.6603E+01
  -3.660  0.1613E+01  0.6619E+01
  -3.650  0.1702E+01  0.6636E+01
  -3.640  0.1340E+01  0.6649E+01
  -3.630  0.1685E+01  0.6666E+01
  -3.620  0.1486E+01  0.6681E+01
  -3.610  0.3966E+00  0.6685E+01
  -3.600  0.5069E+00  0.6690E+01
  -3.590  0.1157E+01  0.6702E+01
  -3.580  0.5613E+00  0.6707E+01
  -3.570  0.1436E+01  0.6722E+01
  -3.560  0.4465E+01  0.6766E+01
  -3.550  0.5309E+01  0.6819E+01
  -3.540  0.4335E+01  0.6863E+01
  -3.530  0.4230E+01  0.6905E+01
  -3.520  0.4399E+01  0.6949E+01
  -3.510  0.2575E+01  0.6975E+01
  -3.500  0.1268E+01  0.6988E+01
  -3.490  0.2350E+01  0.7011E+01
  -3.480  0.4411E+01  0.7055E+01
  -3.470  0.4535E+01  0.7100E+01
  -3.460  0.1790E+01  0.7118E+01
  -3.450  0.2862E+01  0.7147E+01
  -3.440  0.5141E+01  0.7198E+01
  -3.430  0.6404E+01  0.7262E+01
  -3.420  0.9814E+01  0.7361E+01
  -3.410  0.9548E+01  0.7456E+01
  -3.400  0.3340E+01  0.7489E+01
  -3.390  0.2574E+01  0.7515E+01
  -3.380  0.3222E+01  0.7547E+01
  -3.370  0.1937E+01  0.7567E+01
  -3.360  0.2272E+01  0.7590E+01
  -3.350  0.3063E+01  0.7620E+01
  -3.340  0.4680E+01  0.7667E+01
  -3.330  0.5840E+01  0.7725E+01
  -3.320  0.3679E+01  0.7762E+01
  -3.310  0.3199E+01  0.7794E+01
  -3.300  0.3285E+01  0.7827E+01
  -3.290  0.2568E+01  0.7853E+01
  -3.280  0.1692E+01  0.7870E+01
  -3.270  0.1032E+01  0.7880E+01
  -3.260  0.2399E+01  0.7904E+01
  -3.250  0.3505E+01  0.7939E+01
  -3.240  0.5015E+01  0.7989E+01
  -3.230  0.1415E+02  0.8131E+01
  -3.220  0.1858E+02  0.8316E+01
  -3.210  0.8494E+01  0.8401E+01
  -3.200  0.2617E+01  0.8427E+01
  -3.190  0.2938E+01  0.8457E+01
  -3.180  0.2971E+01  0.8487E+01
  -3.170  0.3075E+01  0.8517E+01
  -3.160  0.4918E+01  0.8566E+01
  -3.150  0.4558E+01  0.8612E+01
  -3.140  0.3377E+01  0.8646E+01
  -3.130  0.7139E+01  0.8717E+01
  -3.120  0.1196E+02  0.8837E+01
  -3.110  0.1592E+02  0.8996E+01
  -3.100  0.1514E+02  0.9147E+01
  -3.090  0.5963E+01  0.9207E+01
  -3.080  0.2809E+01  0.9235E+01
  -3.070  0.4345E+01  0.9278E+01
  -3.060  0.3721E+01  0.9316E+01
  -3.050  0.2904E+01  0.9345E+01
  -3.040  0.4296E+01  0.9388E+01
  -3.030  0.5850E+01  0.9446E+01
  -3.020  0.5669E+01  0.9503E+01
  -3.010  0.5057E+01  0.9553E+01
  -3.000  0.2339E+01  0.9577E+01
  -2.990  0.7645E+00  0.9584E+01
  -2.980  0.8912E+00  0.9593E+01
  -2.970  0.1027E+01  0.9604E+01
  -2.960  0.3120E+00  0.9607E+01
  -2.950  0.2052E+00  0.9609E+01
  -2.940  0.1074E+01  0.9620E+01
  -2.930  0.8526E+00  0.9628E+01
  -2.920  0.4381E-01  0.9629E+01
  -2.910  0.5324E+00  0.9634E+01
  -2.900  0.1227E+01  0.9646E+01
  -2.890  0.7276E+00  0.9653E+01
  -2.880  0.8799E+00  0.9662E+01
  -2.870  0.9307E+00  0.9672E+01
  -2.860  0.2404E-01  0.9672E+01
  -2.850 -0.1213E+00  0.9671E+01
  -2.840  0.5856E-01  0.9671E+01
  -2.830  0.6133E+00  0.9677E+01
  -2.820  0.1670E+01  0.9694E+01
  -2.810  0.1733E+01  0.9711E+01
  -2.800  0.5689E+00  0.9717E+01
  -2.790 -0.1715E+00  0.9715E+01
  -2.780 -0.9103E-01  0.9714E+01
  -2.770 -0.6492E-02  0.9714E+01
  -2.760  0.6386E-01  0.9715E+01
  -2.750  0.6701E+00  0.9722E+01
  -2.740  0.2155E+01  0.9743E+01
  -2.730  0.1788E+01  0.9761E+01
  -2.720 -0.2789E-01  0.9761E+01
  -2.710 -0.2231E+00  0.9759E+01
  -2.700 -0.3005E-01  0.9758E+01
  -2.690  0.3009E-01  0.9759E+01
  -2.680  0.3453E+00  0.9762E+01
  -2.670  0.1243E+01  0.9774E+01
  -2.660  0.1678E+01  0.9791E+01
  -2.650  0.1145E+01  0.9803E+01
  -2.640  0.1583E+00  0.9804E+01
  -2.630 -0.1637E+00  0.9803E+01
  -2.620  0.4388E-02  0.9803E+01
  -2.610  0.4127E+00  0.9807E+01
  -2.600  0.1198E+01  0.9819E+01
  -2.590  0.1161E+01  0.9830E+01
  -2.580  0.1059E+01  0.9841E+01
  -2.570  0.7092E+00  0.9848E+01
  -2.560 -0.6135E-01  0.9847E+01
  -2.550  0.1620E+00  0.9849E+01
  -2.540  0.1010E+01  0.9859E+01
  -2.530  0.1229E+01  0.9871E+01
  -2.520  0.9847E+00  0.9881E+01
  -2.510  0.9641E+00  0.9891E+01
  -2.500  0.2729E+00  0.9894E+01
  -2.490  0.7584E+00  0.9901E+01
  -2.480  0.1461E+01  0.9916E+01
  -2.470  0.1334E+01  0.9929E+01
  -2.460  0.1167E+01  0.9941E+01
  -2.450  0.1634E+01  0.9957E+01
  -2.440  0.2591E+01  0.9983E+01
  -2.430  0.1837E+01  0.1000E+02
  -2.420  0.1582E+00  0.1000E+02
  -2.410 -0.2496E+00  0.1000E+02
  -2.400 -0.5643E-01  0.1000E+02
  -2.390 -0.3211E-02  0.1000E+02
  -2.380 -0.5559E-04  0.1000E+02
  -2.370 -0.3076E-06  0.1000E+02
  -2.360 -0.5554E-09  0.1000E+02
  -2.350 -0.3309E-12  0.1000E+02
  -2.340 -0.6551E-16  0.1000E+02
  -2.330 -0.4330E-20  0.1000E+02
  -2.320 -0.9586E-25  0.1000E+02
  -2.310 -0.7127E-30  0.1000E+02
  -2.300 -0.1783E-35  0.1000E+02
  -2.290 -0.1503E-41  0.1000E+02
  -2.280 -0.4272E-48  0.1000E+02
  -2.270 -0.4100E-55  0.1000E+02
  -2.260 -0.1330E-62  0.1000E+02
  -2.250 -0.1458E-70  0.1000E+02
  -2.240 -0.5980E-79  0.1000E+02
  -2.230 -0.5759E-80  0.1000E+02
  -2.220 -0.5764E-80  0.1000E+02
  -2.210 -0.5769E-80  0.1000E+02
  -2.200 -0.5774E-80  0.1000E+02
  -2.190 -0.5779E-80  0.1000E+02
  -2.180 -0.5784E-80  0.1000E+02
  -2.170 -0.5789E-80  0.1000E+02
  -2.160 -0.5794E-80  0.1000E+02
  -2.150 -0.5799E-80  0.1000E+02
  -2.140 -0.5804E-80  0.1000E+02
  -2.130 -0.5809E-80  0.1000E+02
  -2.120 -0.5814E-80  0.1000E+02
  -2.110 -0.5819E-80  0.1000E+02
  -2.100 -0.5824E-80  0.1000E+02
  -2.090 -0.5829E-80  0.1000E+02
  -2.080 -0.5834E-80  0.1000E+02
  -2.070 -0.5839E-80  0.1000E+02
  -2.060 -0.5844E-80  0.1000E+02
  -2.050 -0.5849E-80  0.1000E+02
  -2.040 -0.5854E-80  0.1000E+02
  -2.030 -0.5859E-80  0.1000E+02
  -2.020 -0.5864E-80  0.1000E+02
  -2.010 -0.5869E-80  0.1000E+02
  -2.000  0.3757E-76  0.1000E+02
  -1.990  0.7440E-68  0.1000E+02
  -1.980  0.4986E-60  0.1000E+02
  -1.970  0.1130E-52  0.1000E+02
  -1.960  0.8668E-46  0.1000E+02
  -1.950  0.2247E-39  0.1000E+02
  -1.940  0.1967E-33  0.1000E+02
  -1.930  0.5812E-28  0.1000E+02
  -1.920  0.5792E-23  0.1000E+02
  -1.910  0.1944E-18  0.1000E+02
  -1.900  0.2193E-14  0.1000E+02
  -1.890  0.8300E-11  0.1000E+02
  -1.880  0.1051E-07  0.1000E+02
  -1.870  0.4428E-05  0.1000E+02
  -1.860  0.6175E-03  0.1000E+02
  -1.850  0.2822E-01  0.1000E+02
  -1.840  0.4179E+00  0.1000E+02
  -1.830  0.2004E+01  0.1002E+02
  -1.820  0.3391E+01  0.1006E+02
  -1.810  0.2770E+01  0.1009E+02
  -1.800  0.1443E+01  0.1010E+02
  -1.790  0.1178E+01  0.1011E+02
  -1.780  0.1609E+01  0.1013E+02
  -1.770  0.1976E+01  0.1015E+02
  -1.760  0.1022E+01  0.1016E+02
  -1.750  0.5891E+00  0.1016E+02
  -1.740  0.1274E+01  0.1018E+02
  -1.730  0.1637E+01  0.1019E+02
  -1.720  0.2430E+01  0.1022E+02
  -1.710  0.1739E+01  0.1024E+02
  -1.700  0.1902E+01  0.1025E+02
  -1.690  0.3563E+01  0.1029E+02
  -1.680  0.4466E+01  0.1033E+02
  -1.670  0.2614E+01  0.1036E+02
  -1.660  0.1676E+01  0.1038E+02
  -1.650  0.2242E+01  0.1040E+02
  -1.640  0.2060E+01  0.1042E+02
  -1.630  0.2354E+01  0.1044E+02
  -1.620  0.3227E+01  0.1048E+02
  -1.610  0.1512E+01  0.1049E+02
  -1.600  0.1316E+01  0.1050E+02
  -1.590  0.3455E+01  0.1054E+02
  -1.580  0.1798E+01  0.1056E+02
  -1.570  0.5581E+00  0.1056E+02
  -1.560  0.2128E+01  0.1058E+02
  -1.550  0.1431E+01  0.1060E+02
  -1.540  0.7441E+00  0.1061E+02
  -1.530  0.2893E+01  0.1063E+02
  -1.520  0.2760E+01  0.1066E+02
  -1.510  0.2465E+00  0.1066E+02
  -1.500  0.3192E+00  0.1067E+02
  -1.490  0.1152E+01  0.1068E+02
  -1.480  0.4220E+00  0.1068E+02
  -1.470  0.4303E-01  0.1068E+02
  -1.460  0.1309E+01  0.1070E+02
  -1.450  0.3244E+01  0.1073E+02
  -1.440  0.2411E+01  0.1075E+02
  -1.430  0.9486E+00  0.1076E+02
  -1.420  0.1463E+01  0.1078E+02
  -1.410  0.1299E+01  0.1079E+02
  -1.400  0.2913E+00  0.1079E+02
  -1.390 -0.1394E+00  0.1079E+02
  -1.380  0.3114E+00  0.1080E+02
  -1.370  0.1126E+01  0.1081E+02
  -1.360  0.9555E+00  0.1082E+02
  -1.350  0.6583E+00  0.1082E+02
  -1.340  0.1388E+01  0.1084E+02
  -1.330  0.1892E+01  0.1086E+02
  -1.320  0.2265E+01  0.1088E+02
  -1.310  0.1094E+01  0.1089E+02
  -1.300  0.9205E+00  0.1090E+02
  -1.290  0.6519E+00  0.1090E+02
  -1.280  0.6586E+00  0.1091E+02
  -1.270  0.1104E+01  0.1092E+02
  -1.260  0.2573E+00  0.1093E+02
  -1.250 -0.1160E+00  0.1092E+02
  -1.240  0.4110E+00  0.1093E+02
  -1.230  0.1830E+01  0.1095E+02
  -1.220  0.2119E+01  0.1097E+02
  -1.210  0.3417E+00  0.1097E+02
  -1.200  0.1963E+00  0.1097E+02
  -1.190  0.1210E+01  0.1098E+02
  -1.180  0.1400E+01  0.1100E+02
  -1.170  0.2394E+01  0.1102E+02
  -1.160  0.4826E+01  0.1107E+02
  -1.150  0.4864E+01  0.1112E+02
  -1.140  0.1682E+01  0.1114E+02
  -1.130  0.1579E+01  0.1115E+02
  -1.120  0.2871E+01  0.1118E+02
  -1.110  0.2407E+01  0.1121E+02
  -1.100  0.1847E+01  0.1122E+02
  -1.090  0.1205E+01  0.1124E+02
  -1.080  0.9528E+00  0.1125E+02
  -1.070  0.1702E+01  0.1126E+02
  -1.060  0.2138E+01  0.1128E+02
  -1.050  0.2553E+01  0.1131E+02
  -1.040  0.1381E+01  0.1132E+02
  -1.030 -0.8338E-01  0.1132E+02
  -1.020  0.7328E+00  0.1133E+02
  -1.010  0.2310E+01  0.1135E+02
  -1.000  0.2333E+01  0.1138E+02
  -0.990  0.2923E+01  0.1141E+02
  -0.980  0.2638E+01  0.1143E+02
  -0.970  0.2067E+00  0.1143E+02
  -0.960  0.2129E+00  0.1144E+02
  -0.950  0.1294E+01  0.1145E+02
  -0.940  0.1450E+01  0.1146E+02
  -0.930  0.2034E+01  0.1148E+02
  -0.920  0.2541E+01  0.1151E+02
  -0.910  0.1401E+01  0.1152E+02
  -0.900  0.7345E+00  0.1153E+02
  -0.890  0.9471E+00  0.1154E+02
  -0.880  0.5041E+00  0.1154E+02
  -0.870  0.1205E+01  0.1156E+02
  -0.860  0.1790E+01  0.1157E+02
  -0.850  0.2216E+01  0.1160E+02
  -0.840  0.2628E+01  0.1162E+02
  -0.830  0.1654E+01  0.1164E+02
  -0.820  0.1572E+01  0.1166E+02
  -0.810  0.2475E+01  0.1168E+02
  -0.800  0.2074E+01  0.1170E+02
  -0.790  0.1112E+01  0.1171E+02
  -0.780  0.8404E+00  0.1172E+02
  -0.770  0.9817E+00  0.1173E+02
  -0.760  0.8601E+00  0.1174E+02
  -0.750  0.6845E+00  0.1175E+02
  -0.740  0.2048E+01  0.1177E+02
  -0.730  0.1678E+01  0.1178E+02
  -0.720 -0.1356E-01  0.1178E+02
  -0.710 -0.6524E-02  0.1178E+02
  -0.700  0.1085E+01  0.1179E+02
  -0.690  0.2085E+01  0.1181E+02
  -0.680  0.1232E+01  0.1183E+02
  -0.670  0.9302E-01  0.1183E+02
  -0.660  0.6340E+00  0.1183E+02
  -0.650  0.1164E+01  0.1185E+02
  -0.640  0.5597E+00  0.1185E+02
  -0.630  0.1921E+01  0.1187E+02
  -0.620  0.4513E+01  0.1192E+02
  -0.610  0.2577E+01  0.1194E+02
  -0.600  0.4217E-01  0.1194E+02
  -0.590  0.1248E+01  0.1195E+02
  -0.580  0.2198E+01  0.1198E+02
  -0.570  0.1400E+01  0.1199E+02
  -0.560  0.1372E+01  0.1200E+02
  -0.550  0.2562E+01  0.1203E+02
  -0.540  0.5344E+01  0.1208E+02
  -0.530  0.6566E+01  0.1215E+02
  -0.520  0.6104E+01  0.1221E+02
  -0.510  0.3728E+01  0.1225E+02
  -0.500  0.1543E+01  0.1226E+02
  -0.490  0.2917E+01  0.1229E+02
  -0.480  0.2255E+01  0.1231E+02
  -0.470  0.5186E+00  0.1232E+02
  -0.460  0.9571E+00  0.1233E+02
  -0.450  0.7691E+00  0.1234E+02
  -0.440  0.1851E+01  0.1236E+02
  -0.430  0.3108E+01  0.1239E+02
  -0.420  0.1414E+01  0.1240E+02
  -0.410 -0.1071E+00  0.1240E+02
  -0.400  0.5859E+00  0.1241E+02
  -0.390  0.1388E+01  0.1242E+02
  -0.380  0.1676E+01  0.1244E+02
  -0.370  0.2486E+01  0.1246E+02
  -0.360  0.1983E+01  0.1248E+02
  -0.350  0.2060E+01  0.1250E+02
  -0.340  0.1820E+01  0.1252E+02
  -0.330  0.1480E+01  0.1253E+02
  -0.320  0.1306E+01  0.1255E+02
  -0.310  0.6784E+00  0.1255E+02
  -0.300  0.1061E+01  0.1256E+02
  -0.290  0.2270E+01  0.1259E+02
  -0.280  0.1008E+01  0.1260E+02
  -0.270 -0.2449E+00  0.1259E+02
  -0.260 -0.1039E+00  0.1259E+02
  -0.250  0.3445E+00  0.1260E+02
  -0.240  0.1684E+01  0.1261E+02
  -0.230  0.2992E+01  0.1264E+02
  -0.220  0.3020E+01  0.1267E+02
  -0.210  0.2710E+01  0.1270E+02
  -0.200  0.1406E+01  0.1272E+02
  -0.190  0.8911E+00  0.1272E+02
  -0.180  0.3733E+00  0.1273E+02
  -0.170  0.2957E+00  0.1273E+02
  -0.160  0.1124E+01  0.1274E+02
  -0.150  0.7043E+00  0.1275E+02
  -0.140 -0.1031E+00  0.1275E+02
  -0.130 -0.8606E-01  0.1275E+02
  -0.120 -0.8147E-02  0.1275E+02
  -0.110  0.1729E-01  0.1275E+02
  -0.100  0.3564E+00  0.1275E+02
  -0.090  0.2369E+01  0.1277E+02
  -0.080  0.4801E+01  0.1282E+02
  -0.070  0.2645E+01  0.1285E+02
  -0.060  0.1538E+01  0.1286E+02
  -0.050  0.1708E+01  0.1288E+02
  -0.040  0.4041E-01  0.1288E+02
  -0.030 -0.2489E+00  0.1288E+02
  -0.020 -0.3516E-01  0.1288E+02
  -0.010  0.6975E-01  0.1288E+02
  -0.000  0.5448E+00  0.1289E+02
   0.010  0.1215E+01  0.1290E+02
   0.020  0.6616E+00  0.1290E+02
   0.030  0.4901E+00  0.1291E+02
   0.040  0.1421E+01  0.1292E+02
   0.050  0.1593E+01  0.1294E+02
   0.060  0.1441E+01  0.1295E+02
   0.070  0.1198E+01  0.1297E+02
   0.080  0.5174E+00  0.1297E+02
   0.090  0.8089E+00  0.1298E+02
   0.100  0.2661E+01  0.1301E+02
   0.110  0.2747E+01  0.1303E+02
   0.120  0.4564E+00  0.1304E+02
   0.130 -0.3495E+00  0.1303E+02
   0.140 -0.3177E-01  0.1303E+02
   0.150  0.4749E+00  0.1304E+02
   0.160  0.1274E+01  0.1305E+02
   0.170  0.1267E+01  0.1306E+02
   0.180  0.1107E+01  0.1307E+02
   0.190  0.4779E+00  0.1308E+02
   0.200  0.3780E+00  0.1308E+02
   0.210  0.1845E+01  0.1310E+02
   0.220  0.2606E+01  0.1313E+02
   0.230  0.1769E+01  0.1315E+02
   0.240  0.1143E+01  0.1316E+02
   0.250  0.8866E+00  0.1317E+02
   0.260  0.8919E-01  0.1317E+02
   0.270  0.1138E+00  0.1317E+02
   0.280  0.9763E+00  0.1318E+02
   0.290  0.1015E+01  0.1319E+02
   0.300  0.7366E-01  0.1319E+02
   0.310  0.1604E+00  0.1319E+02
   0.320  0.1026E+01  0.1320E+02
   0.330  0.1040E+01  0.1321E+02
   0.340  0.5962E+00  0.1322E+02
   0.350  0.1422E+01  0.1323E+02
   0.360  0.1637E+01  0.1325E+02
   0.370  0.7803E+00  0.1326E+02
   0.380  0.1467E+00  0.1326E+02
   0.390  0.1287E+01  0.1327E+02
   0.400  0.3218E+01  0.1330E+02
   0.410  0.4330E+01  0.1334E+02
   0.420  0.4407E+01  0.1339E+02
   0.430  0.4123E+01  0.1343E+02
   0.440  0.5197E+01  0.1348E+02
   0.450  0.2630E+01  0.1351E+02
   0.460  0.1282E+01  0.1352E+02
   0.470  0.1831E+01  0.1354E+02
   0.480  0.5082E+00  0.1354E+02
   0.490  0.1449E+01  0.1356E+02
   0.500  0.3236E+01  0.1359E+02
   0.510  0.2013E+01  0.1361E+02
   0.520  0.9146E+00  0.1362E+02
   0.530  0.7195E+00  0.1363E+02
   0.540 -0.1157E-02  0.1363E+02
   0.550  0.3922E+00  0.1363E+02
   0.560  0.2468E+01  0.1366E+02
   0.570  0.3414E+01  0.1369E+02
   0.580  0.7387E+00  0.1370E+02
   0.590 -0.2819E-01  0.1370E+02
   0.600  0.1043E+01  0.1371E+02
   0.610  0.7878E+00  0.1372E+02
   0.620  0.1239E+00  0.1372E+02
   0.630  0.1198E+01  0.1373E+02
   0.640  0.2398E+01  0.1375E+02
   0.650  0.9605E+00  0.1376E+02
   0.660  0.2586E+00  0.1377E+02
   0.670  0.1105E+01  0.1378E+02
   0.680  0.7290E+00  0.1378E+02
   0.690  0.1024E+01  0.1379E+02
   0.700  0.2364E+01  0.1382E+02
   0.710  0.1122E+01  0.1383E+02
   0.720  0.3516E+00  0.1383E+02
   0.730  0.1819E+01  0.1385E+02
   0.740  0.1827E+01  0.1387E+02
   0.750  0.1972E+00  0.1387E+02
   0.760 -0.1288E+00  0.1387E+02
   0.770  0.6075E+00  0.1388E+02
   0.780  0.1216E+01  0.1389E+02
   0.790  0.4941E+00  0.1389E+02
   0.800  0.3864E+00  0.1390E+02
   0.810  0.1179E+01  0.1391E+02
   0.820  0.9518E+00  0.1392E+02
   0.830  0.1618E+01  0.1393E+02
   0.840  0.2310E+01  0.1396E+02
   0.850  0.1073E+01  0.1397E+02
   0.860  0.9121E+00  0.1398E+02
   0.870  0.2867E+00  0.1398E+02
   0.880 -0.1211E+00  0.1398E+02
   0.890  0.4186E+00  0.1398E+02
   0.900  0.1992E+01  0.1400E+02
   0.910  0.2673E+01  0.1403E+02
   0.920  0.1394E+01  0.1404E+02
   0.930  0.3142E+00  0.1405E+02
   0.940  0.9755E-01  0.1405E+02
   0.950  0.9676E+00  0.1406E+02
   0.960  0.1108E+01  0.1407E+02
   0.970  0.8497E+00  0.1408E+02
   0.980  0.1834E+01  0.1410E+02
   0.990  0.2464E+01  0.1412E+02
   1.000  0.1505E+01  0.1414E+02
   1.010 -0.7298E-01  0.1413E+02
   1.020 -0.2102E+00  0.1413E+02
   1.030 -0.2403E-03  0.1413E+02
   1.040  0.3503E+00  0.1414E+02
   1.050  0.1368E+01  0.1415E+02
   1.060  0.1959E+01  0.1417E+02
   1.070  0.1246E+01  0.1418E+02
   1.080  0.9562E+00  0.1419E+02
   1.090  0.8288E+00  0.1420E+02
   1.100  0.2829E-01  0.1420E+02
   1.110  0.2368E+00  0.1420E+02
   1.120  0.1099E+01  0.1421E+02
   1.130  0.8541E+00  0.1422E+02
   1.140 -0.4968E-01  0.1422E+02
   1.150 -0.1053E+00  0.1422E+02
   1.160 -0.1270E-01  0.1422E+02
   1.170 -0.3845E-03  0.1422E+02
   1.180  0.1545E-02  0.1422E+02
   1.190  0.4625E-01  0.1422E+02
   1.200  0.4532E+00  0.1422E+02
   1.210  0.1526E+01  0.1424E+02
   1.220  0.2227E+01  0.1426E+02
   1.230  0.2578E+01  0.1429E+02
   1.240  0.3216E+01  0.1432E+02
   1.250  0.2919E+01  0.1435E+02
   1.260  0.2214E+01  0.1437E+02
   1.270  0.2882E+01  0.1440E+02
   1.280  0.2008E+01  0.1442E+02
   1.290  0.5853E-01  0.1442E+02
   1.300 -0.3531E-01  0.1442E+02
   1.310  0.1026E+01  0.1443E+02
   1.320  0.1770E+01  0.1445E+02
   1.330  0.1466E+01  0.1446E+02
   1.340  0.1084E+01  0.1447E+02
   1.350  0.1060E+01  0.1448E+02
   1.360  0.8036E+00  0.1449E+02
   1.370  0.1477E+01  0.1451E+02
   1.380  0.1783E+01  0.1453E+02
   1.390  0.1519E+01  0.1454E+02
   1.400  0.1070E+01  0.1455E+02
   1.410  0.6306E+00  0.1456E+02
   1.420  0.1056E+01  0.1457E+02
   1.430  0.5459E+00  0.1457E+02
   1.440  0.3692E-01  0.1457E+02
   1.450  0.1037E+01  0.1458E+02
   1.460  0.2832E+01  0.1461E+02
   1.470  0.3631E+01  0.1465E+02
   1.480  0.4149E+01  0.1469E+02
   1.490  0.4373E+01  0.1473E+02
   1.500  0.2844E+01  0.1476E+02
   1.510  0.2113E+01  0.1478E+02
   1.520  0.2651E+01  0.1481E+02
   1.530  0.2648E+01  0.1484E+02
   1.540  0.5441E+00  0.1484E+02
   1.550  0.1539E+01  0.1486E+02
   1.560  0.4875E+01  0.1491E+02
   1.570  0.4595E+01  0.1495E+02
   1.580  0.2216E+01  0.1497E+02
   1.590  0.2183E+01  0.1500E+02
   1.600  0.2660E+01  0.1502E+02
   1.610  0.1400E+01  0.1504E+02
   1.620 -0.1518E+00  0.1504E+02
   1.630 -0.1133E+00  0.1503E+02
   1.640  0.6532E+00  0.1504E+02
   1.650  0.1721E+01  0.1506E+02
   1.660  0.2414E+01  0.1508E+02
   1.670  0.2915E+01  0.1511E+02
   1.680  0.1669E+01  0.1513E+02
   1.690  0.9484E+00  0.1514E+02
   1.700  0.2082E+01  0.1516E+02
   1.710  0.1965E+01  0.1518E+02
   1.720  0.1407E+01  0.1519E+02
   1.730  0.1206E+01  0.1520E+02
   1.740  0.8914E+00  0.1521E+02
   1.750  0.1013E+01  0.1522E+02
   1.760  0.2090E+01  0.1524E+02
   1.770  0.2069E+01  0.1526E+02
   1.780  0.1587E+01  0.1528E+02
   1.790  0.1948E+01  0.1530E+02
   1.800  0.2030E+01  0.1532E+02
   1.810  0.8144E+00  0.1533E+02
   1.820  0.2395E+01  0.1535E+02
   1.830  0.4160E+01  0.1539E+02
   1.840  0.2037E+01  0.1541E+02
   1.850  0.6596E+00  0.1542E+02
   1.860  0.1881E+01  0.1544E+02
   1.870  0.1959E+01  0.1546E+02
   1.880  0.2021E+01  0.1548E+02
   1.890  0.2292E+01  0.1550E+02
   1.900  0.2713E+01  0.1553E+02
   1.910  0.4123E+01  0.1557E+02
   1.920  0.3449E+01  0.1561E+02
   1.930  0.2148E+01  0.1563E+02
   1.940  0.4461E+00  0.1563E+02
   1.950  0.1602E+00  0.1563E+02
   1.960  0.1425E+01  0.1565E+02
   1.970  0.2813E+01  0.1568E+02
   1.980  0.4973E+01  0.1573E+02
   1.990  0.4347E+01  0.1577E+02
   2.000  0.1564E+01  0.1578E+02
   2.010 -0.6011E-01  0.1578E+02
   2.020 -0.1997E+00  0.1578E+02
   2.030  0.5300E+00  0.1579E+02
   2.040  0.1799E+01  0.1580E+02
   2.050  0.3189E+01  0.1584E+02
   2.060  0.4719E+01  0.1588E+02
   2.070  0.4372E+01  0.1593E+02
   2.080  0.3699E+01  0.1596E+02
   2.090  0.3580E+01  0.1600E+02
   2.100  0.1486E+01  0.1602E+02
   2.110  0.1050E+01  0.1603E+02
   2.120  0.2167E+01  0.1605E+02
   2.130  0.4161E+01  0.1609E+02
   2.140  0.4192E+01  0.1613E+02
   2.150  0.4890E+01  0.1618E+02
   2.160  0.5692E+01  0.1624E+02
   2.170  0.3540E+01  0.1627E+02
   2.180  0.3217E+01  0.1630E+02
   2.190  0.3315E+01  0.1634E+02
   2.200  0.3309E+01  0.1637E+02
   2.210  0.4534E+01  0.1642E+02
   2.220  0.2843E+01  0.1644E+02
   2.230  0.9809E+00  0.1645E+02
   2.240  0.2991E+01  0.1648E+02
   2.250  0.5723E+01  0.1654E+02
   2.260  0.6733E+01  0.1661E+02
   2.270  0.6247E+01  0.1667E+02
   2.280  0.4338E+01  0.1671E+02
   2.290  0.3502E+01  0.1675E+02
   2.300  0.2401E+01  0.1677E+02
   2.310  0.1353E+01  0.1679E+02
   2.320  0.3114E+01  0.1682E+02
   2.330  0.4332E+01  0.1686E+02
   2.340  0.4377E+01  0.1691E+02
   2.350  0.6046E+01  0.1697E+02
   2.360  0.8682E+01  0.1705E+02
   2.370  0.7724E+01  0.1713E+02
   2.380  0.5382E+01  0.1718E+02
   2.390  0.3586E+01  0.1722E+02
   2.400  0.3358E+01  0.1725E+02
   2.410  0.4364E+01  0.1730E+02
   2.420  0.3823E+01  0.1733E+02
   2.430  0.2695E+01  0.1736E+02
   2.440  0.3735E+01  0.1740E+02
   2.450  0.4508E+01  0.1744E+02
   2.460  0.3938E+01  0.1748E+02
   2.470  0.3031E+01  0.1751E+02
   2.480  0.2057E+01  0.1753E+02
   2.490  0.2474E+01  0.1756E+02
   2.500  0.3041E+01  0.1759E+02
   2.510  0.4404E+01  0.1763E+02
   2.520  0.3326E+01  0.1767E+02
   2.530  0.1544E+01  0.1768E+02
   2.540  0.1727E+01  0.1770E+02
   2.550  0.2553E+01  0.1773E+02
   2.560  0.2968E+01  0.1775E+02
   2.570  0.4529E+01  0.1780E+02
   2.580  0.6621E+01  0.1787E+02
   2.590  0.6078E+01  0.1793E+02
   2.600  0.3655E+01  0.1796E+02
   2.610  0.2160E+01  0.1799E+02
   2.620  0.1871E+01  0.1800E+02
   2.630  0.1518E+01  0.1802E+02
   2.640  0.6802E+00  0.1803E+02
   2.650  0.9632E+00  0.1804E+02
   2.660  0.3078E+01  0.1807E+02
   2.670  0.2645E+01  0.1809E+02
   2.680  0.1111E+01  0.1810E+02
   2.690  0.2535E+01  0.1813E+02
   2.700  0.2359E+01  0.1815E+02
   2.710  0.7523E+00  0.1816E+02
   2.720  0.1328E+01  0.1817E+02
   2.730  0.2859E+01  0.1820E+02
   2.740  0.2025E+01  0.1822E+02
   2.750  0.9393E+00  0.1823E+02
   2.760  0.1807E+01  0.1825E+02
   2.770  0.3314E+01  0.1828E+02
   2.780  0.3806E+01  0.1832E+02
   2.790  0.3279E+01  0.1835E+02
   2.800  0.2711E+01  0.1838E+02
   2.810  0.1502E+01  0.1840E+02
   2.820  0.3217E+00  0.1840E+02
   2.830  0.5302E+00  0.1840E+02
   2.840  0.2406E+01  0.1843E+02
   2.850  0.2891E+01  0.1846E+02
   2.860  0.9994E+00  0.1847E+02
   2.870  0.1101E+01  0.1848E+02
   2.880  0.3931E+01  0.1852E+02
   2.890  0.4257E+01  0.1856E+02
   2.900  0.3945E+01  0.1860E+02
   2.910  0.5818E+01  0.1866E+02
   2.920  0.4369E+01  0.1870E+02
   2.930  0.9988E+00  0.1871E+02
   2.940  0.5997E+00  0.1872E+02
   2.950  0.3156E+01  0.1875E+02
   2.960  0.4173E+01  0.1879E+02
   2.970  0.4176E+01  0.1883E+02
   2.980  0.6245E+01  0.1890E+02
   2.990  0.8533E+01  0.1898E+02
   3.000  0.6497E+01  0.1905E+02
   3.010  0.4724E+01  0.1909E+02
   3.020  0.9699E+01  0.1919E+02
   3.030  0.1219E+02  0.1931E+02
   3.040  0.8147E+01  0.1939E+02
   3.050  0.6421E+01  0.1946E+02
   3.060  0.3644E+01  0.1949E+02
   3.070  0.1038E+01  0.1950E+02
   3.080  0.9797E+00  0.1951E+02
   3.090  0.9914E+00  0.1952E+02
   3.100  0.2347E+01  0.1955E+02
   3.110  0.5111E+01  0.1960E+02
   3.120  0.4826E+01  0.1965E+02
   3.130  0.3760E+01  0.1968E+02
   3.140  0.3186E+01  0.1972E+02
   3.150  0.3823E+00  0.1972E+02
   3.160 -0.3345E+00  0.1972E+02
   3.170  0.7106E+00  0.1972E+02
   3.180  0.1770E+01  0.1974E+02
   3.190  0.2582E+01  0.1977E+02
   3.200  0.2808E+01  0.1980E+02
   3.210  0.1755E+01  0.1981E+02
   3.220  0.1122E+01  0.1982E+02
   3.230  0.5037E+00  0.1983E+02
   3.240  0.8988E+00  0.1984E+02
   3.250  0.1649E+01  0.1985E+02
   3.260  0.2465E+01  0.1988E+02
   3.270  0.4071E+01  0.1992E+02
   3.280  0.4098E+01  0.1996E+02
   3.290  0.2906E+01  0.1999E+02
   3.300  0.2885E+01  0.2002E+02
   3.310  0.2643E+01  0.2005E+02
   3.320  0.3059E+00  0.2005E+02
   3.330 -0.3729E+00  0.2004E+02
   3.340 -0.8238E-01  0.2004E+02
   3.350  0.3541E-02  0.2004E+02
   3.360  0.1664E+00  0.2005E+02
   3.370  0.1202E+01  0.2006E+02
   3.380  0.3079E+01  0.2009E+02
   3.390  0.2445E+01  0.2011E+02
   3.400  0.6397E-01  0.2011E+02
   3.410 -0.3142E+00  0.2011E+02
   3.420 -0.4839E-02  0.2011E+02
   3.430  0.5803E+00  0.2012E+02
   3.440  0.2441E+01  0.2014E+02
   3.450  0.3539E+01  0.2018E+02
   3.460  0.2027E+01  0.2020E+02
   3.470  0.1323E+01  0.2021E+02
   3.480  0.3181E+01  0.2024E+02
   3.490  0.7126E+01  0.2031E+02
   3.500  0.6268E+01  0.2038E+02
   3.510  0.1948E+01  0.2039E+02
   3.520  0.6581E+00  0.2040E+02
   3.530  0.1164E+01  0.2041E+02
   3.540  0.3045E+01  0.2044E+02
   3.550  0.2970E+01  0.2047E+02
   3.560  0.2042E+01  0.2049E+02
   3.570  0.2849E+01  0.2052E+02
   3.580  0.3751E+01  0.2056E+02
   3.590  0.3456E+01  0.2059E+02
   3.600  0.3777E+01  0.2063E+02
   3.610  0.4814E+01  0.2068E+02
   3.620  0.4606E+01  0.2073E+02
   3.630  0.4213E+01  0.2077E+02
   3.640  0.3165E+01  0.2080E+02
   3.650  0.1812E+01  0.2082E+02
   3.660  0.6147E+00  0.2082E+02
   3.670  0.1294E+01  0.2084E+02
   3.680  0.1568E+01  0.2085E+02
   3.690  0.1065E+01  0.2086E+02
   3.700  0.2378E+01  0.2089E+02
   3.710  0.6117E+01  0.2095E+02
   3.720  0.6170E+01  0.2101E+02
   3.730  0.2331E+01  0.2103E+02
   3.740  0.5619E+00  0.2104E+02
   3.750  0.1483E+01  0.2105E+02
   3.760  0.4304E+01  0.2110E+02
   3.770  0.5054E+01  0.2115E+02
   3.780  0.3574E+01  0.2118E+02
   3.790  0.2852E+01  0.2121E+02
   3.800  0.2551E+01  0.2124E+02
   3.810  0.1957E+01  0.2126E+02
   3.820  0.1764E+01  0.2127E+02
   3.830  0.3403E+01  0.2131E+02
   3.840  0.4626E+01  0.2135E+02
   3.850  0.4026E+01  0.2139E+02
   3.860  0.3360E+01  0.2143E+02
   3.870  0.3654E+01  0.2147E+02
   3.880  0.3174E+01  0.2150E+02
   3.890  0.1999E+01  0.2152E+02
   3.900  0.3318E+01  0.2155E+02
   3.910  0.2945E+01  0.2158E+02
   3.920  0.1108E+01  0.2159E+02
   3.930  0.1054E+01  0.2160E+02
   3.940  0.1825E+01  0.2162E+02
   3.950  0.2886E+01  0.2165E+02
   3.960  0.2319E+01  0.2167E+02
   3.970  0.3893E+00  0.2168E+02
   3.980  0.4078E+00  0.2168E+02
   3.990  0.1228E+01  0.2169E+02
   4.000  0.1246E+01  0.2170E+02
   4.010  0.2312E+01  0.2173E+02
   4.020  0.2471E+01  0.2175E+02
   4.030  0.2303E+01  0.2177E+02
   4.040  0.1947E+01  0.2179E+02
   4.050  0.1520E+01  0.2181E+02
   4.060  0.2481E+01  0.2183E+02
   4.070  0.3047E+01  0.2186E+02
   4.080  0.1204E+01  0.2188E+02
   4.090  0.7607E+00  0.2188E+02
   4.100  0.7372E+00  0.2189E+02
   4.110 -0.4315E-01  0.2189E+02
   4.120  0.8340E-01  0.2189E+02
   4.130  0.1302E+01  0.2191E+02
   4.140  0.2942E+01  0.2193E+02
   4.150  0.2249E+01  0.2196E+02
   4.160  0.1219E+01  0.2197E+02
   4.170  0.2579E+01  0.2200E+02
   4.180  0.2921E+01  0.2202E+02
   4.190  0.1592E+01  0.2204E+02
   4.200  0.1138E+01  0.2205E+02
   4.210  0.1659E+01  0.2207E+02
   4.220  0.1914E+01  0.2209E+02
   4.230  0.7736E+00  0.2210E+02
   4.240  0.1604E+01  0.2211E+02
   4.250  0.3309E+01  0.2214E+02
   4.260  0.3403E+01  0.2218E+02
   4.270  0.2319E+01  0.2220E+02
   4.280  0.1180E+01  0.2221E+02
   4.290  0.8027E+00  0.2222E+02
   4.300  0.2325E+00  0.2222E+02
   4.310  0.1174E+01  0.2224E+02
   4.320  0.2385E+01  0.2226E+02
   4.330  0.9006E+00  0.2227E+02
   4.340  0.2358E+00  0.2227E+02
   4.350  0.1837E+01  0.2229E+02
   4.360  0.2059E+01  0.2231E+02
   4.370  0.8204E+00  0.2232E+02
   4.380  0.1938E+01  0.2234E+02
   4.390  0.2432E+01  0.2236E+02
   4.400  0.2398E+01  0.2239E+02
   4.410  0.3217E+01  0.2242E+02
   4.420  0.2521E+01  0.2244E+02
   4.430  0.2356E+01  0.2247E+02
   4.440  0.3340E+01  0.2250E+02
   4.450  0.2627E+01  0.2253E+02
   4.460  0.5990E+00  0.2253E+02
   4.470  0.4311E+00  0.2254E+02
   4.480  0.3907E+01  0.2258E+02
   4.490  0.7915E+01  0.2265E+02
   4.500  0.5691E+01  0.2271E+02
   4.510  0.2910E+01  0.2274E+02
   4.520  0.5606E+01  0.2280E+02
   4.530  0.7426E+01  0.2287E+02
   4.540  0.7158E+01  0.2294E+02
   4.550  0.5334E+01  0.2300E+02
   4.560  0.4897E+01  0.2304E+02
   4.570  0.5519E+01  0.2310E+02
   4.580  0.3091E+01  0.2313E+02
   4.590  0.7633E+00  0.2314E+02
   4.600  0.2174E+01  0.2316E+02
   4.610  0.2758E+01  0.2319E+02
   4.620  0.4740E+01  0.2324E+02
   4.630  0.4967E+01  0.2328E+02
   4.640  0.2430E+01  0.2331E+02
   4.650  0.1319E+01  0.2332E+02
   4.660  0.1622E+01  0.2334E+02
   4.670  0.3047E+01  0.2337E+02
   4.680  0.4359E+01  0.2341E+02
   4.690  0.4520E+01  0.2346E+02
   4.700  0.2539E+01  0.2348E+02
   4.710  0.1579E+01  0.2350E+02
   4.720  0.2337E+01  0.2352E+02
   4.730  0.1854E+01  0.2354E+02
   4.740  0.1237E+01  0.2355E+02
   4.750  0.2087E+01  0.2357E+02
   4.760  0.2921E+01  0.2360E+02
   4.770  0.3415E+01  0.2364E+02
   4.780  0.2517E+01  0.2366E+02
   4.790  0.1983E+01  0.2368E+02
   4.800  0.1946E+01  0.2370E+02
   4.810  0.2847E+01  0.2373E+02
   4.820  0.4126E+01  0.2377E+02
   4.830  0.1825E+01  0.2379E+02
   4.840  0.1155E+01  0.2380E+02
   4.850  0.2424E+01  0.2383E+02
   4.860  0.2301E+01  0.2385E+02
   4.870  0.3777E+01  0.2389E+02
   4.880  0.4777E+01  0.2393E+02
   4.890  0.4213E+01  0.2398E+02
   4.900  0.9000E+00  0.2399E+02
   4.910 -0.5469E+00  0.2398E+02
   4.920  0.3206E+00  0.2398E+02
   4.930  0.3246E+01  0.2402E+02
   4.940  0.7191E+01  0.2409E+02
   4.950  0.5763E+01  0.2415E+02
   4.960  0.4577E+01  0.2419E+02
   4.970  0.5810E+01  0.2425E+02
   4.980  0.4346E+01  0.2429E+02
   4.990  0.4115E+01  0.2433E+02
   5.000  0.5360E+01  0.2439E+02
   5.010  0.3349E+01  0.2442E+02
   5.020  0.2171E+01  0.2444E+02
   5.030  0.3507E+01  0.2448E+02
   5.040  0.3823E+01  0.2452E+02
   5.050  0.2760E+01  0.2454E+02
   5.060  0.2739E+01  0.2457E+02
   5.070  0.3278E+01  0.2460E+02
   5.080  0.2049E+01  0.2462E+02
   5.090  0.2213E+01  0.2465E+02
   5.100  0.4409E+01  0.2469E+02
   5.110  0.2219E+01  0.2471E+02
   5.120  0.5240E+00  0.2472E+02
   5.130  0.2142E+01  0.2474E+02
   5.140  0.3200E+01  0.2477E+02
   5.150  0.2493E+01  0.2480E+02
   5.160  0.2102E+01  0.2482E+02
   5.170  0.2416E+01  0.2484E+02
   5.180  0.2288E+01  0.2486E+02
   5.190  0.2525E+01  0.2489E+02
   5.200  0.1949E+01  0.2491E+02
   5.210  0.2327E+01  0.2493E+02
   5.220  0.4661E+01  0.2498E+02
   5.230  0.6205E+01  0.2504E+02
   5.240  0.3926E+01  0.2508E+02
   5.250  0.1911E+01  0.2510E+02
   5.260  0.3747E+00  0.2510E+02
   5.270 -0.2704E+00  0.2510E+02
   5.280  0.1775E+00  0.2510E+02
   5.290  0.1491E+01  0.2512E+02
   5.300  0.2768E+01  0.2514E+02
   5.310  0.3076E+01  0.2518E+02
   5.320  0.4471E+01  0.2522E+02
   5.330  0.5714E+01  0.2528E+02
   5.340  0.6551E+01  0.2534E+02
   5.350  0.7858E+01  0.2542E+02
   5.360  0.6702E+01  0.2549E+02
   5.370  0.2804E+01  0.2552E+02
   5.380  0.2077E+01  0.2554E+02
   5.390  0.2436E+01  0.2556E+02
   5.400  0.1097E+01  0.2557E+02
   5.410  0.1158E+01  0.2558E+02
   5.420  0.1732E+01  0.2560E+02
   5.430  0.2917E+01  0.2563E+02
   5.440  0.3696E+01  0.2567E+02
   5.450  0.3143E+01  0.2570E+02
   5.460  0.3796E+01  0.2574E+02
   5.470  0.2957E+01  0.2577E+02
   5.480  0.1798E+01  0.2578E+02
   5.490  0.2160E+01  0.2581E+02
   5.500  0.1954E+01  0.2583E+02
   5.510  0.2450E+00  0.2583E+02
   5.520  0.1409E+00  0.2583E+02
   5.530  0.1224E+01  0.2584E+02
   5.540  0.1723E+01  0.2586E+02
   5.550  0.2897E+01  0.2589E+02
   5.560  0.4921E+01  0.2594E+02
   5.570  0.5401E+01  0.2599E+02
   5.580  0.2530E+01  0.2602E+02
   5.590  0.8128E+00  0.2602E+02
   5.600  0.1001E+01  0.2603E+02
   5.610  0.2362E+01  0.2606E+02
   5.620  0.2512E+01  0.2608E+02
   5.630  0.1168E+01  0.2609E+02
   5.640  0.1510E+01  0.2611E+02
   5.650  0.2922E+01  0.2614E+02
   5.660  0.1951E+01  0.2616E+02
   5.670  0.7853E+00  0.2617E+02
   5.680  0.1003E+01  0.2618E+02
   5.690  0.7892E+00  0.2618E+02
   5.700  0.1125E+01  0.2620E+02
   5.710  0.1115E+01  0.2621E+02
   5.720  0.2333E+01  0.2623E+02
   5.730  0.3592E+01  0.2627E+02
   5.740  0.3817E+01  0.2630E+02
   5.750  0.4843E+01  0.2635E+02
   5.760  0.3281E+01  0.2639E+02
   5.770  0.2418E+01  0.2641E+02
   5.780  0.5638E+01  0.2647E+02
   5.790  0.5738E+01  0.2652E+02
   5.800  0.1619E+01  0.2654E+02
   5.810  0.8396E+00  0.2655E+02
   5.820  0.2597E+01  0.2657E+02
   5.830  0.3656E+01  0.2661E+02
   5.840  0.3401E+01  0.2664E+02
   5.850  0.2562E+01  0.2667E+02
   5.860  0.2893E+01  0.2670E+02
   5.870  0.4361E+01  0.2674E+02
   5.880  0.5243E+01  0.2680E+02
   5.890  0.5752E+01  0.2685E+02
   5.900  0.5453E+01  0.2691E+02
   5.910  0.3738E+01  0.2694E+02
   5.920  0.2792E+01  0.2697E+02
   5.930  0.2014E+01  0.2699E+02
   5.940  0.3531E+01  0.2703E+02
   5.950  0.3717E+01  0.2707E+02
   5.960  0.3779E+01  0.2710E+02
   5.970  0.3999E+01  0.2714E+02
   5.980  0.2518E+01  0.2717E+02
   5.990  0.6332E+00  0.2717E+02
   6.000  0.1546E+01  0.2719E+02
   6.010  0.2463E+01  0.2721E+02
   6.020  0.2190E+01  0.2724E+02
   6.030  0.3344E+01  0.2727E+02
   6.040  0.3429E+01  0.2730E+02
   6.050  0.2847E+01  0.2733E+02
   6.060  0.2813E+01  0.2736E+02
   6.070  0.1255E+01  0.2737E+02
   6.080  0.1743E+01  0.2739E+02
   6.090  0.2466E+01  0.2742E+02
   6.100  0.2435E+01  0.2744E+02
   6.110  0.4728E+01  0.2749E+02
   6.120  0.6287E+01  0.2755E+02
   6.130  0.4149E+01  0.2759E+02
   6.140  0.2646E+01  0.2762E+02
   6.150  0.3902E+01  0.2766E+02
   6.160  0.3019E+01  0.2769E+02
   6.170  0.2429E+01  0.2771E+02
   6.180  0.3098E+01  0.2774E+02
   6.190  0.6053E+01  0.2780E+02
   6.200  0.1115E+02  0.2791E+02
   6.210  0.1062E+02  0.2802E+02
   6.220  0.7178E+01  0.2809E+02
   6.230  0.4390E+01  0.2814E+02
   6.240  0.2896E+01  0.2817E+02
   6.250  0.2808E+01  0.2819E+02
   6.260  0.1676E+01  0.2821E+02
   6.270  0.2364E+01  0.2823E+02
   6.280  0.3969E+01  0.2827E+02
   6.290  0.1843E+01  0.2829E+02
   6.300  0.8611E-01  0.2829E+02
   6.310  0.1539E+01  0.2831E+02
   6.320  0.3504E+01  0.2834E+02
   6.330  0.4203E+01  0.2839E+02
   6.340  0.3842E+01  0.2842E+02
   6.350  0.5424E+01  0.2848E+02
   6.360  0.5925E+01  0.2854E+02
   6.370  0.5027E+01  0.2859E+02
   6.380  0.6365E+01  0.2865E+02
   6.390  0.6608E+01  0.2872E+02
   6.400  0.6891E+01  0.2879E+02
   6.410  0.4940E+01  0.2884E+02
   6.420  0.9411E+00  0.2884E+02
   6.430 -0.1023E+00  0.2884E+02
   6.440  0.1492E+01  0.2886E+02
   6.450  0.1798E+01  0.2888E+02
   6.460  0.5265E+00  0.2888E+02
   6.470 -0.9448E-01  0.2888E+02
   6.480  0.1056E+01  0.2889E+02
   6.490  0.4784E+01  0.2894E+02
   6.500  0.7240E+01  0.2901E+02
   6.510  0.5065E+01  0.2906E+02
   6.520  0.4238E+01  0.2910E+02
   6.530  0.5881E+01  0.2916E+02
   6.540  0.7347E+01  0.2924E+02
   6.550  0.5916E+01  0.2930E+02
   6.560  0.7072E+01  0.2937E+02
   6.570  0.7847E+01  0.2945E+02
   6.580  0.3950E+01  0.2949E+02
   6.590  0.2973E+01  0.2951E+02
   6.600  0.4378E+01  0.2956E+02
   6.610  0.5487E+01  0.2961E+02
   6.620  0.5901E+01  0.2967E+02
   6.630  0.7622E+01  0.2975E+02
   6.640  0.1227E+02  0.2987E+02
   6.650  0.1539E+02  0.3003E+02
   6.660  0.1524E+02  0.3018E+02
   6.670  0.1228E+02  0.3030E+02
   6.680  0.8318E+01  0.3038E+02
   6.690  0.6434E+01  0.3045E+02
   6.700  0.6722E+01  0.3052E+02
   6.710  0.5823E+01  0.3057E+02
   6.720  0.3418E+01  0.3061E+02
   6.730  0.4083E+01  0.3065E+02
   6.740  0.7069E+01  0.3072E+02
   6.750  0.8217E+01  0.3080E+02
   6.760  0.5736E+01  0.3086E+02
   6.770  0.3114E+01  0.3089E+02
   6.780  0.3157E+01  0.3092E+02
   6.790  0.2673E+01  0.3095E+02
   6.800  0.3005E+01  0.3098E+02
   6.810  0.4068E+01  0.3102E+02
   6.820  0.3963E+01  0.3106E+02
   6.830  0.5563E+01  0.3111E+02
   6.840  0.5614E+01  0.3117E+02
   6.850  0.2803E+01  0.3120E+02
   6.860  0.1540E+01  0.3121E+02
   6.870  0.1365E+01  0.3123E+02
   6.880  0.1982E+01  0.3125E+02
   6.890  0.3389E+01  0.3128E+02
   6.900  0.3753E+01  0.3132E+02
   6.910  0.3968E+01  0.3136E+02
   6.920  0.3998E+01  0.3140E+02
   6.930  0.2257E+01  0.3142E+02
   6.940  0.1794E+01  0.3144E+02
   6.950  0.2310E+01  0.3146E+02
   6.960  0.3442E+01  0.3150E+02
   6.970  0.5479E+01  0.3155E+02
   6.980  0.6548E+01  0.3162E+02
   6.990  0.6204E+01  0.3168E+02
   7.000  0.4595E+01  0.3172E+02
   7.010  0.3396E+01  0.3176E+02
   7.020  0.2465E+01  0.3178E+02
   7.030  0.2032E+01  0.3180E+02
   7.040  0.3484E+00  0.3181E+02
   7.050  0.4319E+00  0.3181E+02
   7.060  0.3208E+01  0.3184E+02
   7.070  0.5443E+01  0.3190E+02
   7.080  0.3877E+01  0.3194E+02
   7.090  0.1965E+01  0.3196E+02
   7.100  0.1851E+01  0.3197E+02
   7.110  0.2065E+01  0.3200E+02
   7.120  0.2650E+01  0.3202E+02
   7.130  0.3617E+01  0.3206E+02
   7.140  0.2060E+01  0.3208E+02
   7.150  0.2509E+01  0.3210E+02
   7.160  0.5703E+01  0.3216E+02
   7.170  0.6286E+01  0.3222E+02
   7.180  0.6044E+01  0.3228E+02
   7.190  0.5079E+01  0.3233E+02
   7.200  0.5252E+01  0.3239E+02
   7.210  0.6012E+01  0.3245E+02
   7.220  0.4594E+01  0.3249E+02
   7.230  0.3272E+01  0.3253E+02
   7.240  0.1890E+01  0.3254E+02
   7.250  0.1122E+01  0.3256E+02
   7.260  0.1947E+01  0.3258E+02
   7.270  0.4194E+01  0.3262E+02
   7.280  0.4121E+01  0.3266E+02
   7.290  0.3583E+01  0.3269E+02
   7.300  0.4278E+01  0.3274E+02
   7.310  0.4452E+01  0.3278E+02
   7.320  0.4145E+01  0.3282E+02
   7.330  0.4469E+01  0.3287E+02
   7.340  0.1965E+01  0.3289E+02
   7.350  0.2510E+00  0.3289E+02
   7.360  0.9309E+00  0.3290E+02
   7.370  0.3718E+00  0.3290E+02
   7.380  0.2322E-02  0.3290E+02
   7.390  0.7602E+00  0.3291E+02
   7.400  0.1298E+01  0.3292E+02
   7.410  0.1579E+01  0.3294E+02
   7.420  0.4409E+01  0.3298E+02
   7.430  0.5404E+01  0.3304E+02
   7.440  0.2979E+01  0.3307E+02
   7.450  0.1587E+01  0.3308E+02
   7.460  0.1521E+01  0.3310E+02
   7.470  0.2865E+01  0.3313E+02
   7.480  0.3419E+01  0.3316E+02
   7.490  0.3765E+01  0.3320E+02
   7.500  0.2521E+01  0.3322E+02
   7.510  0.9316E+00  0.3323E+02
   7.520 -0.5659E-01  0.3323E+02
   7.530  0.5987E-01  0.3323E+02
   7.540  0.1166E+01  0.3325E+02
   7.550  0.2068E+01  0.3327E+02
   7.560  0.1182E+01  0.3328E+02
   7.570  0.3860E+00  0.3328E+02
   7.580  0.1038E+01  0.3329E+02
   7.590  0.8313E+00  0.3330E+02
   7.600  0.1374E+01  0.3331E+02
   7.610  0.4174E+01  0.3336E+02
   7.620  0.3337E+01  0.3339E+02
   7.630  0.5536E-01  0.3339E+02
   7.640 -0.8438E-01  0.3339E+02
   7.650  0.1116E+01  0.3340E+02
   7.660  0.1750E+01  0.3342E+02
   7.670  0.2372E+01  0.3344E+02
   7.680  0.2587E+01  0.3347E+02
   7.690  0.2776E+01  0.3349E+02
   7.700  0.2148E+01  0.3352E+02
   7.710  0.3759E+00  0.3352E+02
   7.720 -0.4677E-02  0.3352E+02
   7.730  0.1533E+01  0.3354E+02
   7.740  0.3369E+01  0.3357E+02
   7.750  0.1901E+01  0.3359E+02
   7.760  0.2827E+00  0.3359E+02
   7.770  0.9722E+00  0.3360E+02
   7.780  0.5735E+00  0.3361E+02
   7.790 -0.1288E+00  0.3361E+02
   7.800 -0.7311E-01  0.3360E+02
   7.810 -0.6223E-02  0.3360E+02
   7.820  0.3260E-03  0.3360E+02
   7.830  0.2384E-01  0.3360E+02
   7.840  0.4017E+00  0.3361E+02
   7.850  0.2190E+01  0.3363E+02
   7.860  0.3518E+01  0.3367E+02
   7.870  0.1064E+01  0.3368E+02
   7.880 -0.5591E-01  0.3368E+02
   7.890  0.1995E+01  0.3370E+02
   7.900  0.4362E+01  0.3374E+02
   7.910  0.3511E+01  0.3377E+02
   7.920  0.1025E+01  0.3378E+02
   7.930 -0.1520E+00  0.3378E+02
   7.940  0.3690E+00  0.3379E+02
   7.950  0.1206E+01  0.3380E+02
   7.960  0.8010E+00  0.3381E+02
   7.970  0.8599E+00  0.3382E+02
   7.980  0.1057E+01  0.3383E+02
   7.990  0.9282E+00  0.3384E+02
   8.000  0.2205E+01  0.3386E+02
   8.010  0.1447E+01  0.3387E+02
   8.020 -0.1857E+00  0.3387E+02
   8.030 -0.1792E+00  0.3387E+02
   8.040 -0.1836E-01  0.3387E+02
   8.050  0.9809E-02  0.3387E+02
   8.060  0.2127E+00  0.3387E+02
   8.070  0.1423E+01  0.3388E+02
   8.080  0.3329E+01  0.3392E+02
   8.090  0.3869E+01  0.3396E+02
   8.100  0.2783E+01  0.3398E+02
   8.110  0.1045E+01  0.3399E+02
   8.120  0.6740E+00  0.3400E+02
   8.130  0.9802E-01  0.3400E+02
   8.140  0.5181E+00  0.3401E+02
   8.150  0.1431E+01  0.3402E+02
   8.160  0.1962E+01  0.3404E+02
   8.170  0.3257E+01  0.3407E+02
   8.180  0.3060E+01  0.3410E+02
   8.190  0.2615E+01  0.3413E+02
   8.200  0.2716E+01  0.3416E+02
   8.210  0.2827E+01  0.3419E+02
   8.220  0.5628E+01  0.3424E+02
   8.230  0.1023E+02  0.3434E+02
   8.240  0.8759E+01  0.3443E+02
   8.250  0.6621E+01  0.3450E+02
   8.260  0.5482E+01  0.3455E+02
   8.270  0.5158E+01  0.3461E+02
   8.280  0.5606E+01  0.3466E+02
   8.290  0.6164E+01  0.3472E+02
   8.300  0.7301E+01  0.3480E+02
   8.310  0.8434E+01  0.3488E+02
   8.320  0.9526E+01  0.3498E+02
   8.330  0.8100E+01  0.3506E+02
   8.340  0.1603E+01  0.3507E+02
   8.350  0.1162E+01  0.3508E+02
   8.360  0.5350E+01  0.3514E+02
   8.370  0.5142E+01  0.3519E+02
   8.380  0.3038E+01  0.3522E+02
   8.390  0.2458E+01  0.3524E+02
   8.400  0.2415E+01  0.3527E+02
   8.410  0.1716E+01  0.3529E+02
   8.420  0.1135E+01  0.3530E+02
   8.430  0.1546E+01  0.3531E+02
   8.440  0.2760E+01  0.3534E+02
   8.450  0.3740E+01  0.3538E+02
   8.460  0.5274E+01  0.3543E+02
   8.470  0.4540E+01  0.3548E+02
   8.480  0.2696E+01  0.3550E+02
   8.490  0.2944E+01  0.3553E+02
   8.500  0.4139E+01  0.3557E+02
   8.510  0.4547E+01  0.3562E+02
   8.520  0.5043E+01  0.3567E+02
   8.530  0.2875E+01  0.3570E+02
   8.540 -0.7448E-02  0.3570E+02
   8.550 -0.1504E+00  0.3570E+02
   8.560  0.9545E+00  0.3571E+02
   8.570  0.9792E+00  0.3572E+02
   8.580  0.2469E-01  0.3572E+02
   8.590 -0.1122E+00  0.3571E+02
   8.600  0.2382E+00  0.3572E+02
   8.610  0.1793E+01  0.3573E+02
   8.620  0.3650E+01  0.3577E+02
   8.630  0.1698E+01  0.3579E+02
   8.640  0.6682E+00  0.3580E+02
   8.650  0.2754E+01  0.3582E+02
   8.660  0.5530E+01  0.3588E+02
   8.670  0.6257E+01  0.3594E+02
   8.680  0.2600E+01  0.3597E+02
   8.690  0.5081E+00  0.3597E+02
   8.700  0.7357E+00  0.3598E+02
   8.710  0.1017E+00  0.3598E+02
   8.720  0.9270E-01  0.3598E+02
   8.730  0.9422E+00  0.3599E+02
   8.740  0.1049E+01  0.3600E+02
   8.750  0.8497E-01  0.3600E+02
   8.760 -0.1631E-01  0.3600E+02
   8.770  0.1087E+01  0.3601E+02
   8.780  0.3682E+01  0.3605E+02
   8.790  0.4904E+01  0.3610E+02
   8.800  0.3102E+01  0.3613E+02
   8.810  0.7259E+00  0.3614E+02
   8.820 -0.2718E+00  0.3613E+02
   8.830 -0.1350E+00  0.3613E+02
   8.840  0.3154E+00  0.3614E+02
   8.850  0.1095E+01  0.3615E+02
   8.860  0.8908E+00  0.3616E+02
   8.870 -0.3204E-01  0.3616E+02
   8.880 -0.1104E+00  0.3615E+02
   8.890 -0.1400E-01  0.3615E+02
   8.900  0.4418E-02  0.3615E+02
   8.910  0.1137E+00  0.3616E+02
   8.920  0.8825E+00  0.3616E+02
   8.930  0.2204E+01  0.3619E+02
   8.940  0.1487E+01  0.3620E+02
   8.950 -0.8219E-01  0.3620E+02
   8.960 -0.1883E+00  0.3620E+02
   8.970 -0.2570E-01  0.3620E+02
   8.980 -0.3735E-03  0.3620E+02
   8.990  0.2251E-01  0.3620E+02
   9.000  0.2769E+00  0.3620E+02
   9.010  0.1047E+01  0.3621E+02
   9.020  0.1241E+01  0.3622E+02
   9.030  0.1026E+01  0.3623E+02
   9.040  0.9616E+00  0.3624E+02
   9.050  0.5970E+00  0.3625E+02
   9.060  0.1640E+01  0.3627E+02
   9.070  0.2498E+01  0.3629E+02
   9.080  0.2443E+01  0.3632E+02
   9.090  0.1703E+01  0.3633E+02
   9.100  0.9576E+00  0.3634E+02
   9.110  0.9544E+00  0.3635E+02
   9.120  0.2134E+00  0.3635E+02
   9.130 -0.1547E+00  0.3635E+02
   9.140 -0.3918E-01  0.3635E+02
   9.150 -0.2174E-02  0.3635E+02
   9.160 -0.3399E-04  0.3635E+02
   9.170  0.1891E-03  0.3635E+02
   9.180  0.9842E-02  0.3635E+02
   9.190  0.1683E+00  0.3635E+02
   9.200  0.9786E+00  0.3636E+02
   9.210  0.2261E+01  0.3639E+02
   9.220  0.2597E+01  0.3641E+02
   9.230  0.1008E+01  0.3642E+02
   9.240 -0.2698E+00  0.3642E+02
   9.250 -0.1461E+00  0.3642E+02
   9.260 -0.1333E-01  0.3642E+02
   9.270 -0.2992E-03  0.3642E+02
   9.280  0.4062E-02  0.3642E+02
   9.290  0.1101E+00  0.3642E+02
   9.300  0.9414E+00  0.3643E+02
   9.310  0.2375E+01  0.3645E+02
   9.320  0.1381E+01  0.3647E+02
   9.330  0.2288E-01  0.3647E+02
   9.340  0.1123E+01  0.3648E+02
   9.350  0.2218E+01  0.3650E+02
   9.360  0.9862E+00  0.3651E+02
   9.370  0.7625E-01  0.3651E+02
   9.380  0.9179E+00  0.3652E+02
   9.390  0.1187E+01  0.3653E+02
   9.400  0.1028E+01  0.3654E+02
   9.410  0.1500E+01  0.3656E+02
   9.420  0.1307E+01  0.3657E+02
   9.430  0.4459E+00  0.3657E+02
   9.440 -0.6732E-01  0.3657E+02
   9.450  0.6297E+00  0.3658E+02
   9.460  0.1915E+01  0.3660E+02
   9.470  0.2130E+01  0.3662E+02
   9.480  0.1439E+01  0.3663E+02
   9.490  0.5590E+00  0.3664E+02
   9.500 -0.1349E+00  0.3664E+02
   9.510  0.6297E-01  0.3664E+02
   9.520  0.1127E+01  0.3665E+02
   9.530  0.2448E+01  0.3667E+02
   9.540  0.1593E+01  0.3669E+02
   9.550  0.9436E+00  0.3670E+02
   9.560  0.5197E+00  0.3671E+02
   9.570 -0.1280E+00  0.3670E+02
   9.580 -0.8003E-01  0.3670E+02
   9.590 -0.3546E-02  0.3670E+02
   9.600  0.8475E-01  0.3670E+02
   9.610  0.5997E+00  0.3671E+02
   9.620  0.1242E+01  0.3672E+02
   9.630  0.7928E+00  0.3673E+02
   9.640  0.9042E+00  0.3674E+02
   9.650  0.9007E+00  0.3675E+02
   9.660  0.5884E-02  0.3675E+02
   9.670 -0.1209E+00  0.3675E+02
   9.680 -0.1738E-01  0.3675E+02
   9.690  0.3787E-03  0.3675E+02
   9.700  0.4050E-01  0.3675E+02
   9.710  0.5173E+00  0.3675E+02
   9.720  0.2006E+01  0.3677E+02
   9.730  0.2042E+01  0.3679E+02
   9.740  0.2778E+00  0.3680E+02
   9.750  0.6048E+00  0.3680E+02
   9.760  0.1097E+01  0.3681E+02
   9.770  0.2059E+00  0.3682E+02
   9.780  0.1028E+00  0.3682E+02
   9.790  0.9576E+00  0.3683E+02
   9.800  0.1029E+01  0.3684E+02
   9.810  0.6236E-01  0.3684E+02
   9.820 -0.1308E+00  0.3684E+02
   9.830 -0.2132E-01  0.3684E+02
   9.840  0.7146E-02  0.3684E+02
   9.850  0.1417E+00  0.3684E+02
   9.860  0.7759E+00  0.3684E+02
   9.870  0.1185E+01  0.3686E+02
   9.880  0.3320E+00  0.3686E+02
   9.890  0.2918E+00  0.3686E+02
   9.900  0.1135E+01  0.3687E+02
   9.910  0.7210E+00  0.3688E+02
   9.920 -0.9875E-01  0.3688E+02
   9.930 -0.8790E-01  0.3688E+02
   9.940 -0.4380E-02  0.3688E+02
   9.950  0.1395E+00  0.3688E+02
   9.960  0.1523E+01  0.3690E+02
   9.970  0.5811E+01  0.3695E+02
   9.980  0.8098E+01  0.3703E+02
   9.990  0.5020E+01  0.3709E+02
  10.000  0.2399E+01  0.3711E+02
  10.010  0.1530E+01  0.3712E+02
  10.020  0.1727E+01  0.3714E+02
  10.030  0.1799E+01  0.3716E+02
  10.040  0.3185E+01  0.3719E+02
  10.050  0.3859E+01  0.3723E+02
  10.060  0.3483E+01  0.3726E+02
  10.070  0.3576E+01  0.3730E+02
  10.080  0.3295E+01  0.3733E+02
  10.090  0.2819E+01  0.3736E+02
  10.100  0.1069E+01  0.3737E+02
  10.110  0.1428E+01  0.3739E+02
  10.120  0.2078E+01  0.3741E+02
  10.130  0.7090E+00  0.3741E+02
  10.140  0.9254E+00  0.3742E+02
  10.150  0.1169E+01  0.3744E+02
  10.160  0.2164E+01  0.3746E+02
  10.170  0.4336E+01  0.3750E+02
  10.180  0.3701E+01  0.3754E+02
  10.190  0.1073E+01  0.3755E+02
  10.200  0.6661E+00  0.3755E+02
  10.210  0.7346E+00  0.3756E+02
  10.220  0.1455E+00  0.3756E+02
  10.230  0.9938E+00  0.3757E+02
  10.240  0.2264E+01  0.3760E+02
  10.250  0.2345E+01  0.3762E+02
  10.260  0.2173E+01  0.3764E+02
  10.270  0.2386E+01  0.3767E+02
  10.280  0.1185E+01  0.3768E+02
  10.290  0.1094E+01  0.3769E+02
  10.300  0.2477E+01  0.3771E+02
  10.310  0.1764E+01  0.3773E+02
  10.320  0.8979E+00  0.3774E+02
  10.330  0.7744E+00  0.3775E+02
  10.340  0.1501E+01  0.3776E+02
  10.350  0.1593E+01  0.3778E+02
  10.360  0.1331E+01  0.3779E+02
  10.370  0.1274E+01  0.3780E+02
  10.380  0.1174E+01  0.3782E+02
  10.390  0.1006E+01  0.3783E+02
  10.400  0.7337E+00  0.3783E+02
  10.410  0.1587E+01  0.3785E+02
  10.420  0.1671E+01  0.3787E+02
  10.430  0.4816E+00  0.3787E+02
  10.440 -0.1718E+00  0.3787E+02
  10.450  0.1265E+00  0.3787E+02
  10.460  0.1161E+01  0.3788E+02
  10.470  0.2189E+01  0.3790E+02
  10.480  0.1169E+01  0.3792E+02
  10.490  0.3514E+00  0.3792E+02
  10.500  0.2162E+01  0.3794E+02
  10.510  0.3924E+01  0.3798E+02
  10.520  0.2365E+01  0.3800E+02
  10.530  0.2298E-01  0.3800E+02
  10.540 -0.3204E+00  0.3800E+02
  10.550 -0.6059E-01  0.3800E+02
  10.560 -0.3070E-02  0.3800E+02
  10.570 -0.4832E-04  0.3800E+02
  10.580 -0.2462E-06  0.3800E+02
  10.590 -0.4130E-09  0.3800E+02
  10.600 -0.2301E-12  0.3800E+02
  10.610 -0.4281E-16  0.3800E+02
  10.620 -0.2667E-20  0.3800E+02
  10.630 -0.5579E-25  0.3800E+02
  10.640 -0.3925E-30  0.3800E+02
  10.650 -0.9299E-36  0.3800E+02
  10.660 -0.7427E-42  0.3800E+02
  10.670 -0.2002E-48  0.3800E+02
  10.680 -0.1822E-55  0.3800E+02
  10.690 -0.5604E-63  0.3800E+02
  10.700 -0.5828E-71  0.3800E+02
  10.710 -0.3274E-79  0.3800E+02
  10.720 -0.1225E-79  0.3800E+02
  10.730 -0.1225E-79  0.3800E+02
  10.740 -0.1226E-79  0.3800E+02
  10.750 -0.1226E-79  0.3800E+02
  10.760 -0.1227E-79  0.3800E+02
  10.770 -0.1227E-79  0.3800E+02
  10.780 -0.1228E-79  0.3800E+02
  10.790 -0.1228E-79  0.3800E+02
  10.800 -0.1229E-79  0.3800E+02
  10.810 -0.1229E-79  0.3800E+02
  10.820 -0.1230E-79  0.3800E+02
  10.830 -0.1230E-79  0.3800E+02
  10.840 -0.1231E-79  0.3800E+02
  10.850 -0.1231E-79  0.3800E+02
  10.860 -0.1232E-79  0.3800E+02
  10.870 -0.1232E-79  0.3800E+02
  10.880 -0.1233E-79  0.3800E+02
  10.890 -0.1233E-79  0.3800E+02
  10.900 -0.1234E-79  0.3800E+02
  10.910 -0.1234E-79  0.3800E+02
  10.920 -0.1235E-79  0.3800E+02
  10.930 -0.1235E-79  0.3800E+02
  10.940 -0.1236E-79  0.3800E+02
  10.950 -0.1236E-79  0.3800E+02
  10.960 -0.1237E-79  0.3800E+02
  10.970 -0.1237E-79  0.3800E+02
  10.980 -0.1238E-79  0.3800E+02
  10.990 -0.1238E-79  0.3800E+02
  11.000 -0.1239E-79  0.3800E+02
  11.010 -0.1239E-79  0.3800E+02
  11.020 -0.1240E-79  0.3800E+02
  11.030 -0.1240E-79  0.3800E+02
  11.040 -0.1241E-79  0.3800E+02
  11.050 -0.1241E-79  0.3800E+02
  11.060 -0.1242E-79  0.3800E+02
  11.070 -0.1242E-79  0.3800E+02
  11.080 -0.1243E-79  0.3800E+02
  11.090 -0.1243E-79  0.3800E+02
  11.100 -0.1244E-79  0.3800E+02
  11.110 -0.1244E-79  0.3800E+02
  11.120 -0.1245E-79  0.3800E+02
  11.130 -0.1245E-79  0.3800E+02
  11.140 -0.1246E-79  0.3800E+02
  11.150 -0.1246E-79  0.3800E+02
  11.160 -0.1247E-79  0.3800E+02
  11.170 -0.1247E-79  0.3800E+02
  11.180 -0.1248E-79  0.3800E+02
  11.190 -0.1248E-79  0.3800E+02
  11.200 -0.1249E-79  0.3800E+02
  11.210 -0.1249E-79  0.3800E+02
  11.220 -0.1250E-79  0.3800E+02
  11.230 -0.1250E-79  0.3800E+02
  11.240 -0.1251E-79  0.3800E+02
  11.250 -0.1251E-79  0.3800E+02
  11.260 -0.1252E-79  0.3800E+02
  11.270 -0.1252E-79  0.3800E+02
  11.280 -0.1253E-79  0.3800E+02
  11.290 -0.1253E-79  0.3800E+02
  11.300 -0.1254E-79  0.3800E+02
  11.310 -0.1254E-79  0.3800E+02
  11.320 -0.1255E-79  0.3800E+02
  11.330 -0.1255E-79  0.3800E+02
  11.340 -0.1256E-79  0.3800E+02
  11.350 -0.1256E-79  0.3800E+02
  11.360 -0.1257E-79  0.3800E+02
  11.370 -0.1257E-79  0.3800E+02
  11.380 -0.1258E-79  0.3800E+02
  11.390 -0.1258E-79  0.3800E+02
  11.400 -0.1259E-79  0.3800E+02
  11.410 -0.1259E-79  0.3800E+02
  11.420 -0.1260E-79  0.3800E+02
  11.430 -0.1260E-79  0.3800E+02
  11.440 -0.1261E-79  0.3800E+02
  11.450 -0.1261E-79  0.3800E+02
  11.460 -0.1262E-79  0.3800E+02
  11.470 -0.1262E-79  0.3800E+02
  11.480 -0.1263E-79  0.3800E+02
  11.490 -0.1263E-79  0.3800E+02
  11.500 -0.1264E-79  0.3800E+02
  11.510 -0.1264E-79  0.3800E+02
  11.520 -0.1265E-79  0.3800E+02
  11.530 -0.1265E-79  0.3800E+02
  11.540 -0.1266E-79  0.3800E+02
  11.550 -0.1266E-79  0.3800E+02
  11.560 -0.1267E-79  0.3800E+02
  11.570 -0.1267E-79  0.3800E+02
  11.580 -0.1268E-79  0.3800E+02
  11.590 -0.1268E-79  0.3800E+02
  11.600 -0.1269E-79  0.3800E+02
  11.610 -0.1269E-79  0.3800E+02
  11.620 -0.1270E-79  0.3800E+02
  11.630 -0.1270E-79  0.3800E+02
  11.640 -0.1271E-79  0.3800E+02
  11.650 -0.1271E-79  0.3800E+02
  11.660 -0.1272E-79  0.3800E+02
  11.670 -0.1272E-79  0.3800E+02
  11.680 -0.1273E-79  0.3800E+02
  11.690 -0.1273E-79  0.3800E+02
  11.700 -0.1274E-79  0.3800E+02
  11.710 -0.1274E-79  0.3800E+02
  11.720 -0.1275E-79  0.3800E+02
  11.730 -0.1275E-79  0.3800E+02
  11.740 -0.1276E-79  0.3800E+02
  11.750 -0.1276E-79  0.3800E+02
  11.760 -0.1277E-79  0.3800E+02
  11.770 -0.1277E-79  0.3800E+02
  11.780 -0.1278E-79  0.3800E+02
  11.790 -0.1278E-79  0.3800E+02
  11.800 -0.1279E-79  0.3800E+02
  11.810 -0.1279E-79  0.3800E+02
  11.820 -0.1280E-79  0.3800E+02
  11.830 -0.1280E-79  0.3800E+02
  11.840 -0.1281E-79  0.3800E+02
  11.850 -0.1281E-79  0.3800E+02
  11.860 -0.1282E-79  0.3800E+02
  11.870 -0.1282E-79  0.3800E+02
  11.880 -0.1283E-79  0.3800E+02
  11.890 -0.1283E-79  0.3800E+02
  11.900 -0.1284E-79  0.3800E+02
  11.910 -0.1284E-79  0.3800E+02
  11.920 -0.1285E-79  0.3800E+02
  11.930 -0.1285E-79  0.3800E+02
  11.940 -0.1286E-79  0.3800E+02
  11.950 -0.1286E-79  0.3800E+02
  11.960 -0.1287E-79  0.3800E+02
  11.970 -0.1287E-79  0.3800E+02
  11.980 -0.1288E-79  0.3800E+02
  11.990 -0.1288E-79  0.3800E+02
  12.000 -0.1289E-79  0.3800E+02
  12.010 -0.1289E-79  0.3800E+02
  12.020 -0.1290E-79  0.3800E+02
  12.030 -0.1290E-79  0.3800E+02
  12.040 -0.1291E-79  0.3800E+02
  12.050 -0.1291E-79  0.3800E+02
  12.060 -0.1292E-79  0.3800E+02
  12.070 -0.1292E-79  0.3800E+02
  12.080 -0.1293E-79  0.3800E+02
  12.090 -0.1293E-79  0.3800E+02
  12.100 -0.1294E-79  0.3800E+02
  12.110 -0.1294E-79  0.3800E+02
  12.120 -0.1295E-79  0.3800E+02
  12.130 -0.1295E-79  0.3800E+02
  12.140 -0.1296E-79  0.3800E+02
  12.150 -0.1296E-79  0.3800E+02
  12.160 -0.1297E-79  0.3800E+02
  12.170 -0.1297E-79  0.3800E+02
  12.180 -0.1298E-79  0.3800E+02
  12.190 -0.1298E-79  0.3800E+02
  12.200 -0.1299E-79  0.3800E+02
  12.210 -0.1299E-79  0.3800E+02
  12.220 -0.1300E-79  0.3800E+02
  12.230 -0.1300E-79  0.3800E+02
  12.240 -0.1301E-79  0.3800E+02
  12.250 -0.1301E-79  0.3800E+02
  12.260 -0.1302E-79  0.3800E+02
  12.270 -0.1302E-79  0.3800E+02
  12.280 -0.1303E-79  0.3800E+02
  12.290 -0.1303E-79  0.3800E+02
  12.300 -0.1304E-79  0.3800E+02
  12.310 -0.1304E-79  0.3800E+02
  12.320 -0.1305E-79  0.3800E+02
  12.330 -0.1305E-79  0.3800E+02
  12.340 -0.1306E-79  0.3800E+02
  12.350 -0.1306E-79  0.3800E+02
  12.360 -0.1307E-79  0.3800E+02
  12.370 -0.1307E-79  0.3800E+02
  12.380 -0.1308E-79  0.3800E+02
  12.390 -0.1308E-79  0.3800E+02
  12.400 -0.1309E-79  0.3800E+02
  12.410 -0.1309E-79  0.3800E+02
  12.420 -0.1310E-79  0.3800E+02
  12.430 -0.1310E-79  0.3800E+02
  12.440 -0.1311E-79  0.3800E+02
  12.450 -0.1311E-79  0.3800E+02
  12.460 -0.1312E-79  0.3800E+02
  12.470 -0.1312E-79  0.3800E+02
  12.480 -0.1313E-79  0.3800E+02
  12.490 -0.1313E-79  0.3800E+02
  12.500 -0.1314E-79  0.3800E+02
  12.510 -0.1314E-79  0.3800E+02
  12.520 -0.1315E-79  0.3800E+02
  12.530 -0.1315E-79  0.3800E+02
  12.540 -0.1316E-79  0.3800E+02
  12.550 -0.1316E-79  0.3800E+02
  12.560 -0.1317E-79  0.3800E+02
  12.570 -0.1317E-79  0.3800E+02
  12.580 -0.1318E-79  0.3800E+02
  12.590 -0.1318E-79  0.3800E+02
  12.600 -0.1319E-79  0.3800E+02
  12.610 -0.1319E-79  0.3800E+02
  12.620 -0.1320E-79  0.3800E+02
  12.630 -0.1320E-79  0.3800E+02
  12.640 -0.1321E-79  0.3800E+02
  12.650 -0.1321E-79  0.3800E+02
  12.660 -0.1322E-79  0.3800E+02
  12.670 -0.1322E-79  0.3800E+02
  12.680 -0.1323E-79  0.3800E+02
  12.690 -0.1323E-79  0.3800E+02
  12.700 -0.1324E-79  0.3800E+02
  12.710 -0.1324E-79  0.3800E+02
  12.720 -0.1325E-79  0.3800E+02
  12.730 -0.1325E-79  0.3800E+02
  12.740 -0.1326E-79  0.3800E+02
  12.750 -0.1326E-79  0.3800E+02
  12.760 -0.1327E-79  0.3800E+02
  12.770 -0.1327E-79  0.3800E+02
  12.780 -0.1328E-79  0.3800E+02
  12.790 -0.1328E-79  0.3800E+02
  12.800 -0.1329E-79  0.3800E+02
  12.810 -0.1329E-79  0.3800E+02
  12.820 -0.1330E-79  0.3800E+02
  12.830 -0.1331E-79  0.3800E+02
  12.840 -0.1331E-79  0.3800E+02
  12.850 -0.1332E-79  0.3800E+02
  12.860 -0.1332E-79  0.3800E+02
  12.870 -0.1333E-79  0.3800E+02
  12.880 -0.1333E-79  0.3800E+02
  12.890 -0.1334E-79  0.3800E+02
  12.900 -0.1334E-79  0.3800E+02
  12.910 -0.1335E-79  0.3800E+02
  12.920 -0.1335E-79  0.3800E+02
  12.930 -0.1336E-79  0.3800E+02
  12.940 -0.1336E-79  0.3800E+02
  12.950 -0.1337E-79  0.3800E+02
  12.960 -0.1337E-79  0.3800E+02
  12.970 -0.1338E-79  0.3800E+02
  12.980 -0.1338E-79  0.3800E+02
  12.990 -0.1339E-79  0.3800E+02
  13.000 -0.1339E-79  0.3800E+02
  13.010 -0.1340E-79  0.3800E+02
  13.020 -0.1340E-79  0.3800E+02
  13.030 -0.1341E-79  0.3800E+02
  13.040 -0.1341E-79  0.3800E+02
  13.050 -0.1342E-79  0.3800E+02
  13.060 -0.1342E-79  0.3800E+02
  13.070 -0.1343E-79  0.3800E+02
  13.080 -0.1343E-79  0.3800E+02
  13.090 -0.1344E-79  0.3800E+02
  13.100 -0.1344E-79  0.3800E+02
  13.110 -0.1345E-79  0.3800E+02
  13.120 -0.1345E-79  0.3800E+02
  13.130 -0.1346E-79  0.3800E+02
  13.140 -0.1346E-79  0.3800E+02
  13.150 -0.1347E-79  0.3800E+02
  13.160 -0.1347E-79  0.3800E+02
  13.170 -0.1348E-79  0.3800E+02
  13.180 -0.1348E-79  0.3800E+02
  13.190 -0.1349E-79  0.3800E+02
  13.200 -0.1349E-79  0.3800E+02
  13.210 -0.1350E-79  0.3800E+02
  13.220 -0.1350E-79  0.3800E+02
  13.230 -0.1351E-79  0.3800E+02
  13.240 -0.1351E-79  0.3800E+02
  13.250 -0.1352E-79  0.3800E+02
  13.260 -0.1352E-79  0.3800E+02
  13.270 -0.1353E-79  0.3800E+02
  13.280 -0.1353E-79  0.3800E+02
  13.290 -0.1354E-79  0.3800E+02
  13.300 -0.1354E-79  0.3800E+02
  13.310 -0.1355E-79  0.3800E+02
  13.320 -0.1355E-79  0.3800E+02
  13.330 -0.1356E-79  0.3800E+02
  13.340 -0.1356E-79  0.3800E+02
  13.350 -0.1357E-79  0.3800E+02
  13.360 -0.1357E-79  0.3800E+02
  13.370 -0.1358E-79  0.3800E+02
  13.380 -0.1358E-79  0.3800E+02
  13.390 -0.1359E-79  0.3800E+02
  13.400 -0.1359E-79  0.3800E+02
  13.410 -0.1360E-79  0.3800E+02
  13.420 -0.1360E-79  0.3800E+02
  13.430 -0.1361E-79  0.3800E+02
  13.440 -0.1361E-79  0.3800E+02
  13.450 -0.1362E-79  0.3800E+02
  13.460 -0.1362E-79  0.3800E+02
  13.470 -0.1363E-79  0.3800E+02
  13.480 -0.1363E-79  0.3800E+02
  13.490 -0.1364E-79  0.3800E+02
  13.500 -0.1364E-79  0.3800E+02
  13.510 -0.1365E-79  0.3800E+02
  13.520 -0.1365E-79  0.3800E+02
  13.530 -0.1366E-79  0.3800E+02
  13.540 -0.1366E-79  0.3800E+02
  13.550 -0.1367E-79  0.3800E+02
  13.560 -0.1367E-79  0.3800E+02
  13.570 -0.1368E-79  0.3800E+02
  13.580 -0.1368E-79  0.3800E+02
  13.590 -0.1369E-79  0.3800E+02
  13.600 -0.1369E-79  0.3800E+02
  13.610 -0.1370E-79  0.3800E+02
  13.620 -0.1370E-79  0.3800E+02
  13.630 -0.1371E-79  0.3800E+02
  13.640 -0.1371E-79  0.3800E+02
  13.650 -0.1372E-79  0.3800E+02
  13.660 -0.1372E-79  0.3800E+02
  13.670 -0.1373E-79  0.3800E+02
  13.680 -0.1373E-79  0.3800E+02
  13.690 -0.1374E-79  0.3800E+02
  13.700 -0.1374E-79  0.3800E+02
  13.710 -0.1375E-79  0.3800E+02
  13.720 -0.1375E-79  0.3800E+02
  13.730 -0.1376E-79  0.3800E+02
  13.740 -0.1376E-79  0.3800E+02
  13.750 -0.1377E-79  0.3800E+02
  13.760 -0.1377E-79  0.3800E+02
  13.770 -0.1378E-79  0.3800E+02
  13.780 -0.1378E-79  0.3800E+02
  13.790 -0.1379E-79  0.3800E+02
  13.800 -0.1379E-79  0.3800E+02
  13.810 -0.1380E-79  0.3800E+02
  13.820 -0.1380E-79  0.3800E+02
  13.830 -0.1381E-79  0.3800E+02
  13.840 -0.1381E-79  0.3800E+02
  13.850 -0.1382E-79  0.3800E+02
  13.860 -0.1382E-79  0.3800E+02
  13.870 -0.1383E-79  0.3800E+02
  13.880 -0.1383E-79  0.3800E+02
  13.890 -0.1384E-79  0.3800E+02
  13.900 -0.1384E-79  0.3800E+02
  13.910 -0.1385E-79  0.3800E+02
  13.920 -0.1385E-79  0.3800E+02
  13.930 -0.1386E-79  0.3800E+02
  13.940 -0.1386E-79  0.3800E+02
  13.950 -0.1387E-79  0.3800E+02
  13.960 -0.1387E-79  0.3800E+02
  13.970 -0.1388E-79  0.3800E+02
  13.980 -0.1388E-79  0.3800E+02
  13.990 -0.1389E-79  0.3800E+02
  14.000 -0.1389E-79  0.3800E+02
  14.010 -0.1390E-79  0.3800E+02
  14.020 -0.1390E-79  0.3800E+02
  14.030 -0.1391E-79  0.3800E+02
  14.040 -0.1391E-79  0.3800E+02
  14.050 -0.1392E-79  0.3800E+02
  14.060 -0.1392E-79  0.3800E+02
  14.070 -0.1393E-79  0.3800E+02
  14.080 -0.1393E-79  0.3800E+02
  14.090 -0.1394E-79  0.3800E+02
  14.100 -0.1394E-79  0.3800E+02
  14.110 -0.1395E-79  0.3800E+02
  14.120 -0.1395E-79  0.3800E+02
  14.130 -0.1396E-79  0.3800E+02
  14.140 -0.1396E-79  0.3800E+02
  14.150 -0.1397E-79  0.3800E+02
  14.160 -0.1397E-79  0.3800E+02
  14.170 -0.1398E-79  0.3800E+02
  14.180 -0.1398E-79  0.3800E+02
  14.190 -0.1399E-79  0.3800E+02
  14.200 -0.1399E-79  0.3800E+02
  14.210 -0.1400E-79  0.3800E+02
  14.220 -0.1400E-79  0.3800E+02
  14.230 -0.1401E-79  0.3800E+02
  14.240 -0.1401E-79  0.3800E+02
  14.250 -0.1402E-79  0.3800E+02
  14.260 -0.1402E-79  0.3800E+02
  14.270 -0.1403E-79  0.3800E+02
  14.280 -0.1403E-79  0.3800E+02
  14.290 -0.1404E-79  0.3800E+02
  14.300 -0.1404E-79  0.3800E+02
  14.310 -0.1405E-79  0.3800E+02
  14.320 -0.1405E-79  0.3800E+02
  14.330 -0.1406E-79  0.3800E+02
  14.340 -0.1406E-79  0.3800E+02
  14.350 -0.1407E-79  0.3800E+02
  14.360 -0.1407E-79  0.3800E+02
  14.370 -0.1408E-79  0.3800E+02
  14.380 -0.1408E-79  0.3800E+02
  14.390 -0.1409E-79  0.3800E+02
  14.400 -0.1409E-79  0.3800E+02
  14.410 -0.1410E-79  0.3800E+02
  14.420 -0.1410E-79  0.3800E+02
  14.430 -0.1411E-79  0.3800E+02
  14.440 -0.1411E-79  0.3800E+02
  14.450 -0.1412E-79  0.3800E+02
  14.460 -0.1412E-79  0.3800E+02
  14.470 -0.1413E-79  0.3800E+02
  14.480 -0.1413E-79  0.3800E+02
  14.490 -0.1414E-79  0.3800E+02
  14.500 -0.1414E-79  0.3800E+02
  14.510 -0.1415E-79  0.3800E+02
  14.520 -0.1415E-79  0.3800E+02
  14.530 -0.1416E-79  0.3800E+02
  14.540 -0.1416E-79  0.3800E+02
  14.550 -0.1417E-79  0.3800E+02
  14.560 -0.1417E-79  0.3800E+02
  14.570 -0.1418E-79  0.3800E+02
  14.580 -0.1418E-79  0.3800E+02
  14.590 -0.1419E-79  0.3800E+02
  14.600 -0.1419E-79  0.3800E+02
  14.610 -0.1420E-79  0.3800E+02
  14.620 -0.1420E-79  0.3800E+02
  14.630 -0.1421E-79  0.3800E+02
  14.640 -0.1421E-79  0.3800E+02
  14.650 -0.1422E-79  0.3800E+02
  14.660 -0.1422E-79  0.3800E+02
  14.670 -0.1423E-79  0.3800E+02
  14.680 -0.1423E-79  0.3800E+02
  14.690 -0.1424E-79  0.3800E+02
  14.700 -0.1424E-79  0.3800E+02
  14.710 -0.1425E-79  0.3800E+02
  14.720 -0.1425E-79  0.3800E+02
  14.730 -0.1426E-79  0.3800E+02
  14.740 -0.1426E-79  0.3800E+02
  14.750 -0.1427E-79  0.3800E+02
  14.760 -0.1427E-79  0.3800E+02
  14.770 -0.1428E-79  0.3800E+02
  14.780 -0.1428E-79  0.3800E+02
  14.790 -0.1429E-79  0.3800E+02
  14.800 -0.1429E-79  0.3800E+02
  14.810 -0.1430E-79  0.3800E+02
  14.820 -0.1430E-79  0.3800E+02
  14.830 -0.1431E-79  0.3800E+02
  14.840 -0.1431E-79  0.3800E+02
  14.850 -0.1432E-79  0.3800E+02
  14.860 -0.1432E-79  0.3800E+02
  14.870 -0.1433E-79  0.3800E+02
  14.880 -0.1433E-79  0.3800E+02
  14.890 -0.1434E-79  0.3800E+02
  14.900 -0.1434E-79  0.3800E+02
  14.910 -0.1435E-79  0.3800E+02
  14.920 -0.1435E-79  0.3800E+02
  14.930 -0.1436E-79  0.3800E+02
  14.940 -0.1436E-79  0.3800E+02
  14.950 -0.1437E-79  0.3800E+02
  14.960 -0.1437E-79  0.3800E+02
  14.970 -0.1438E-79  0.3800E+02
  14.980 -0.1438E-79  0.3800E+02
  14.990 -0.1439E-79  0.3800E+02
  15.000 -0.1439E-79  0.3800E+02
  15.010 -0.1440E-79  0.3800E+02
  15.020 -0.1440E-79  0.3800E+02
  15.030 -0.1441E-79  0.3800E+02
  15.040 -0.1441E-79  0.3800E+02
  15.050 -0.1442E-79  0.3800E+02
  15.060 -0.1442E-79  0.3800E+02
  15.070 -0.1443E-79  0.3800E+02
  15.080 -0.1443E-79  0.3800E+02
  15.090 -0.1444E-79  0.3800E+02
  15.100 -0.1444E-79  0.3800E+02
  15.110 -0.1445E-79  0.3800E+02
  15.120 -0.1445E-79  0.3800E+02
  15.130 -0.1446E-79  0.3800E+02
  15.140 -0.1446E-79  0.3800E+02
  15.150 -0.1447E-79  0.3800E+02
  15.160 -0.1447E-79  0.3800E+02
  15.170 -0.1448E-79  0.3800E+02
  15.180 -0.1448E-79  0.3800E+02
  15.190 -0.1449E-79  0.3800E+02
  15.200 -0.1449E-79  0.3800E+02
  15.210 -0.1450E-79  0.3800E+02
  15.220 -0.1450E-79  0.3800E+02
  15.230 -0.1451E-79  0.3800E+02
  15.240 -0.1451E-79  0.3800E+02
  15.250 -0.1452E-79  0.3800E+02
  15.260 -0.1452E-79  0.3800E+02
  15.270 -0.1453E-79  0.3800E+02
  15.280 -0.1453E-79  0.3800E+02
  15.290 -0.1454E-79  0.3800E+02
  15.300 -0.1454E-79  0.3800E+02
  15.310 -0.1455E-79  0.3800E+02
  15.320 -0.1455E-79  0.3800E+02
  15.330 -0.1456E-79  0.3800E+02
  15.340 -0.1456E-79  0.3800E+02
  15.350 -0.1457E-79  0.3800E+02
  15.360 -0.1457E-79  0.3800E+02
  15.370 -0.1458E-79  0.3800E+02
  15.380 -0.1458E-79  0.3800E+02
  15.390 -0.1459E-79  0.3800E+02
  15.400 -0.1459E-79  0.3800E+02
  15.410 -0.1460E-79  0.3800E+02
  15.420 -0.1460E-79  0.3800E+02
  15.430 -0.1461E-79  0.3800E+02
  15.440 -0.1461E-79  0.3800E+02
  15.450 -0.1462E-79  0.3800E+02
  15.460 -0.1462E-79  0.3800E+02
  15.470 -0.1463E-79  0.3800E+02
  15.480 -0.1463E-79  0.3800E+02
  15.490 -0.1464E-79  0.3800E+02
  15.500 -0.1464E-79  0.3800E+02
  15.510 -0.1465E-79  0.3800E+02
  15.520 -0.1465E-79  0.3800E+02
  15.530 -0.1466E-79  0.3800E+02
  15.540 -0.1466E-79  0.3800E+02
  15.550 -0.1467E-79  0.3800E+02
  15.560 -0.1467E-79  0.3800E+02
  15.570 -0.1468E-79  0.3800E+02
  15.580 -0.1468E-79  0.3800E+02
  15.590 -0.1469E-79  0.3800E+02
  15.600 -0.1469E-79  0.3800E+02
  15.610 -0.1470E-79  0.3800E+02
  15.620 -0.1470E-79  0.3800E+02
  15.630 -0.1471E-79  0.3800E+02
  15.640 -0.1471E-79  0.3800E+02
  15.650 -0.1472E-79  0.3800E+02
  15.660 -0.1472E-79  0.3800E+02
  15.670 -0.1473E-79  0.3800E+02
  15.680 -0.1473E-79  0.3800E+02
  15.690 -0.1474E-79  0.3800E+02
  15.700 -0.1474E-79  0.3800E+02
  15.710 -0.1475E-79  0.3800E+02
  15.720 -0.1475E-79  0.3800E+02
  15.730 -0.1476E-79  0.3800E+02
  15.740 -0.1476E-79  0.3800E+02
  15.750 -0.1477E-79  0.3800E+02
  15.760 -0.1477E-79  0.3800E+02
  15.770 -0.1478E-79  0.3800E+02
  15.780 -0.1478E-79  0.3800E+02
  15.790 -0.1479E-79  0.3800E+02
  15.800 -0.1479E-79  0.3800E+02
  15.810 -0.1480E-79  0.3800E+02
  15.820 -0.1480E-79  0.3800E+02
  15.830 -0.1481E-79  0.3800E+02
  15.840 -0.1481E-79  0.3800E+02
  15.850 -0.1482E-79  0.3800E+02
  15.860 -0.1482E-79  0.3800E+02
  15.870 -0.1483E-79  0.3800E+02
  15.880 -0.1483E-79  0.3800E+02
  15.890 -0.1484E-79  0.3800E+02
  15.900 -0.1484E-79  0.3800E+02
  15.910 -0.1485E-79  0.3800E+02
  15.920 -0.1485E-79  0.3800E+02
  15.930 -0.1486E-79  0.3800E+02
  15.940 -0.1486E-79  0.3800E+02
  15.950 -0.1487E-79  0.3800E+02
  15.960 -0.1487E-79  0.3800E+02
  15.970 -0.1488E-79  0.3800E+02
  15.980 -0.1488E-79  0.3800E+02
  15.990 -0.1489E-79  0.3800E+02
  16.000 -0.1489E-79  0.3800E+02
