#  E (eV)   dos(E)     Int dos(E) EFermi =    0.274 eV
  -9.000 -0.2915E-80 -0.2915E-82
  -8.990 -0.2920E-80 -0.5836E-82
  -8.980 -0.2925E-80 -0.8761E-82
  -8.970 -0.2930E-80 -0.1169E-81
  -8.960 -0.2935E-80 -0.1463E-81
  -8.950 -0.2940E-80 -0.1757E-81
  -8.940 -0.2945E-80 -0.2051E-81
  -8.930 -0.2950E-80 -0.2346E-81
  -8.920 -0.2955E-80 -0.2642E-81
  -8.910 -0.2960E-80 -0.2938E-81
  -8.900 -0.2965E-80 -0.3234E-81
  -8.890 -0.2970E-80 -0.3531E-81
  -8.880 -0.2975E-80 -0.3829E-81
  -8.870 -0.2980E-80 -0.4127E-81
  -8.860 -0.2985E-80 -0.4426E-81
  -8.850 -0.2991E-80 -0.4725E-81
  -8.840 -0.2996E-80 -0.5024E-81
  -8.830 -0.3001E-80 -0.5324E-81
  -8.820 -0.3006E-80 -0.5625E-81
  -8.810 -0.3011E-80 -0.5926E-81
  -8.800 -0.3016E-80 -0.6227E-81
  -8.790 -0.3021E-80 -0.6529E-81
  -8.780 -0.3026E-80 -0.6832E-81
  -8.770 -0.3031E-80 -0.7135E-81
  -8.760 -0.3036E-80 -0.7439E-81
  -8.750 -0.3041E-80 -0.7743E-81
  -8.740 -0.3046E-80 -0.8047E-81
  -8.730 -0.3051E-80 -0.8352E-81
  -8.720 -0.3056E-80 -0.8658E-81
  -8.710 -0.3061E-80 -0.8964E-81
  -8.700 -0.3066E-80 -0.9271E-81
  -8.690 -0.3071E-80 -0.9578E-81
  -8.680 -0.3076E-80 -0.9885E-81
  -8.670 -0.3081E-80 -0.1019E-80
  -8.660 -0.3086E-80 -0.1050E-80
  -8.650 -0.3091E-80 -0.1081E-80
  -8.640 -0.3096E-80 -0.1112E-80
  -8.630 -0.3101E-80 -0.1143E-80
  -8.620 -0.3106E-80 -0.1174E-80
  -8.610 -0.3111E-80 -0.1205E-80
  -8.600 -0.3116E-80 -0.1236E-80
  -8.590 -0.3121E-80 -0.1268E-80
  -8.580 -0.3126E-80 -0.1299E-80
  -8.570 -0.3131E-80 -0.1330E-80
  -8.560 -0.3136E-80 -0.1362E-80
  -8.550 -0.3141E-80 -0.1393E-80
  -8.540 -0.3146E-80 -0.1424E-80
  -8.530 -0.3151E-80 -0.1456E-80
  -8.520 -0.3156E-80 -0.1487E-80
  -8.510 -0.3161E-80 -0.1519E-80
  -8.500 -0.3166E-80 -0.1551E-80
  -8.490 -0.3171E-80 -0.1582E-80
  -8.480 -0.3176E-80 -0.1614E-80
  -8.470 -0.3181E-80 -0.1646E-80
  -8.460 -0.3186E-80 -0.1678E-80
  -8.450 -0.3191E-80 -0.1710E-80
  -8.440 -0.3196E-80 -0.1742E-80
  -8.430 -0.3201E-80 -0.1774E-80
  -8.420 -0.3206E-80 -0.1806E-80
  -8.410 -0.3211E-80 -0.1838E-80
  -8.400 -0.3216E-80 -0.1870E-80
  -8.390 -0.3221E-80 -0.1902E-80
  -8.380 -0.3226E-80 -0.1935E-80
  -8.370 -0.3231E-80 -0.1967E-80
  -8.360 -0.3236E-80 -0.1999E-80
  -8.350 -0.3241E-80 -0.2032E-80
  -8.340 -0.3246E-80 -0.2064E-80
  -8.330 -0.3251E-80 -0.2097E-80
  -8.320 -0.3256E-80 -0.2129E-80
  -8.310 -0.3261E-80 -0.2162E-80
  -8.300 -0.3266E-80 -0.2194E-80
  -8.290 -0.3271E-80 -0.2227E-80
  -8.280 -0.3276E-80 -0.2260E-80
  -8.270 -0.3281E-80 -0.2293E-80
  -8.260 -0.3286E-80 -0.2326E-80
  -8.250 -0.3291E-80 -0.2358E-80
  -8.240 -0.3296E-80 -0.2391E-80
  -8.230 -0.3301E-80 -0.2424E-80
  -8.220 -0.3306E-80 -0.2457E-80
  -8.210 -0.3311E-80 -0.2491E-80
  -8.200 -0.3316E-80 -0.2524E-80
  -8.190 -0.3321E-80 -0.2557E-80
  -8.180 -0.3326E-80 -0.2590E-80
  -8.170 -0.3331E-80 -0.2624E-80
  -8.160 -0.3336E-80 -0.2657E-80
  -8.150 -0.3341E-80 -0.2690E-80
  -8.140 -0.3346E-80 -0.2724E-80
  -8.130 -0.3351E-80 -0.2757E-80
  -8.120 -0.3356E-80 -0.2791E-80
  -8.110 -0.3361E-80 -0.2824E-80
  -8.100 -0.3366E-80 -0.2858E-80
  -8.090 -0.3371E-80 -0.2892E-80
  -8.080 -0.3376E-80 -0.2926E-80
  -8.070 -0.3381E-80 -0.2959E-80
  -8.060 -0.3386E-80 -0.2993E-80
  -8.050 -0.3391E-80 -0.3027E-80
  -8.040 -0.3396E-80 -0.3061E-80
  -8.030 -0.3401E-80 -0.3095E-80
  -8.020 -0.3406E-80 -0.3129E-80
  -8.010 -0.3411E-80 -0.3163E-80
  -8.000 -0.3416E-80 -0.3198E-80
  -7.990 -0.3421E-80 -0.3232E-80
  -7.980 -0.3426E-80 -0.3266E-80
  -7.970 -0.3431E-80 -0.3300E-80
  -7.960 -0.3436E-80 -0.3335E-80
  -7.950 -0.3441E-80 -0.3369E-80
  -7.940 -0.3446E-80 -0.3404E-80
  -7.930 -0.3451E-80 -0.3438E-80
  -7.920 -0.3456E-80 -0.3473E-80
  -7.910 -0.3461E-80 -0.3507E-80
  -7.900 -0.3466E-80 -0.3542E-80
  -7.890 -0.3472E-80 -0.3577E-80
  -7.880 -0.3477E-80 -0.3611E-80
  -7.870 -0.3482E-80 -0.3646E-80
  -7.860 -0.3487E-80 -0.3681E-80
  -7.850 -0.3492E-80 -0.3716E-80
  -7.840 -0.3497E-80 -0.3751E-80
  -7.830 -0.3502E-80 -0.3786E-80
  -7.820 -0.3507E-80 -0.3821E-80
  -7.810 -0.3512E-80 -0.3856E-80
  -7.800 -0.3517E-80 -0.3891E-80
  -7.790 -0.3522E-80 -0.3927E-80
  -7.780 -0.3527E-80 -0.3962E-80
  -7.770 -0.3532E-80 -0.3997E-80
  -7.760 -0.3537E-80 -0.4032E-80
  -7.750 -0.3542E-80 -0.4068E-80
  -7.740 -0.3547E-80 -0.4103E-80
  -7.730 -0.3552E-80 -0.4139E-80
  -7.720 -0.3557E-80 -0.4174E-80
  -7.710 -0.3562E-80 -0.4210E-80
  -7.700 -0.3567E-80 -0.4246E-80
  -7.690 -0.3572E-80 -0.4281E-80
  -7.680 -0.3577E-80 -0.4317E-80
  -7.670 -0.3582E-80 -0.4353E-80
  -7.660 -0.3587E-80 -0.4389E-80
  -7.650 -0.3592E-80 -0.4425E-80
  -7.640 -0.3597E-80 -0.4461E-80
  -7.630 -0.3602E-80 -0.4497E-80
  -7.620 -0.3607E-80 -0.4533E-80
  -7.610 -0.3612E-80 -0.4569E-80
  -7.600 -0.3617E-80 -0.4605E-80
  -7.590 -0.3622E-80 -0.4641E-80
  -7.580 -0.3627E-80 -0.4678E-80
  -7.570 -0.3632E-80 -0.4714E-80
  -7.560 -0.3637E-80 -0.4750E-80
  -7.550 -0.3642E-80 -0.4787E-80
  -7.540 -0.3647E-80 -0.4823E-80
  -7.530 -0.3652E-80 -0.4860E-80
  -7.520 -0.3657E-80 -0.4896E-80
  -7.510 -0.3662E-80 -0.4933E-80
  -7.500 -0.3667E-80 -0.4970E-80
  -7.490 -0.3672E-80 -0.5006E-80
  -7.480 -0.3677E-80 -0.5043E-80
  -7.470 -0.3682E-80 -0.5080E-80
  -7.460 -0.3687E-80 -0.5117E-80
  -7.450 -0.3692E-80 -0.5154E-80
  -7.440 -0.3697E-80 -0.5191E-80
  -7.430 -0.3702E-80 -0.5228E-80
  -7.420 -0.3707E-80 -0.5265E-80
  -7.410 -0.3712E-80 -0.5302E-80
  -7.400 -0.3717E-80 -0.5339E-80
  -7.390 -0.3722E-80 -0.5376E-80
  -7.380 -0.3727E-80 -0.5414E-80
  -7.370 -0.3732E-80 -0.5451E-80
  -7.360 -0.3737E-80 -0.5488E-80
  -7.350 -0.3742E-80 -0.5526E-80
  -7.340 -0.3747E-80 -0.5563E-80
  -7.330 -0.3752E-80 -0.5601E-80
  -7.320  0.2584E-78 -0.3016E-80
  -7.310  0.6588E-70  0.6588E-72
  -7.300  0.5607E-62  0.5607E-64
  -7.290  0.1616E-54  0.1616E-56
  -7.280  0.1578E-47  0.1578E-49
  -7.270  0.5214E-41  0.5214E-43
  -7.260  0.5834E-35  0.5834E-37
  -7.250  0.2209E-29  0.2209E-31
  -7.240  0.2830E-24  0.2830E-26
  -7.230  0.1227E-19  0.1227E-21
  -7.220  0.1797E-15  0.1797E-17
  -7.210  0.8890E-12  0.8892E-14
  -7.200  0.1484E-08  0.1485E-10
  -7.190  0.8337E-06  0.8352E-08
  -7.180  0.1573E-03  0.1582E-05
  -7.170  0.9945E-02  0.1010E-03
  -7.160  0.2105E+00  0.2206E-02
  -7.150  0.1510E+01  0.1731E-01
  -7.140  0.3860E+01  0.5590E-01
  -7.130  0.4014E+01  0.9605E-01
  -7.120  0.2378E+01  0.1198E+00
  -7.110  0.3112E+01  0.1510E+00
  -7.100  0.5837E+01  0.2093E+00
  -7.090  0.5104E+01  0.2604E+00
  -7.080  0.2209E+01  0.2824E+00
  -7.070  0.2071E+01  0.3032E+00
  -7.060  0.2537E+01  0.3285E+00
  -7.050  0.1075E+01  0.3393E+00
  -7.040  0.2091E+01  0.3602E+00
  -7.030  0.3488E+01  0.3951E+00
  -7.020  0.1480E+01  0.4099E+00
  -7.010  0.1303E+01  0.4229E+00
  -7.000  0.1609E+01  0.4390E+00
  -6.990  0.1148E+01  0.4505E+00
  -6.980  0.1186E+01  0.4623E+00
  -6.970  0.1237E+01  0.4747E+00
  -6.960  0.1894E+01  0.4936E+00
  -6.950  0.2099E+01  0.5146E+00
  -6.940  0.1501E+01  0.5296E+00
  -6.930  0.1178E+01  0.5414E+00
  -6.920  0.1970E+01  0.5611E+00
  -6.910  0.1311E+01  0.5742E+00
  -6.900 -0.3039E-01  0.5739E+00
  -6.890  0.2458E+00  0.5764E+00
  -6.880  0.1174E+01  0.5881E+00
  -6.870  0.1220E+01  0.6003E+00
  -6.860  0.1821E+01  0.6185E+00
  -6.850  0.2332E+01  0.6419E+00
  -6.840  0.1782E+01  0.6597E+00
  -6.830  0.2008E+01  0.6797E+00
  -6.820  0.5285E+00  0.6850E+00
  -6.810 -0.2780E+00  0.6823E+00
  -6.800 -0.1306E-01  0.6821E+00
  -6.790  0.5405E+00  0.6875E+00
  -6.780  0.1214E+01  0.6997E+00
  -6.770  0.6580E+00  0.7062E+00
  -6.760  0.7667E+00  0.7139E+00
  -6.750  0.2982E+01  0.7437E+00
  -6.740  0.3116E+01  0.7749E+00
  -6.730  0.1227E+01  0.7872E+00
  -6.720  0.6039E+00  0.7932E+00
  -6.710 -0.5910E-01  0.7926E+00
  -6.700 -0.1202E+00  0.7914E+00
  -6.690  0.5270E-01  0.7919E+00
  -6.680  0.5381E+00  0.7973E+00
  -6.670  0.1213E+01  0.8094E+00
  -6.660  0.6439E+00  0.8159E+00
  -6.650  0.4634E+00  0.8205E+00
  -6.640  0.2058E+01  0.8411E+00
  -6.630  0.2999E+01  0.8711E+00
  -6.620  0.1939E+01  0.8905E+00
  -6.610  0.1028E+01  0.9008E+00
  -6.600  0.2656E+00  0.9034E+00
  -6.590 -0.1708E+00  0.9017E+00
  -6.580 -0.5458E-01  0.9012E+00
  -6.570  0.7194E-01  0.9019E+00
  -6.560  0.5648E+00  0.9075E+00
  -6.550  0.1240E+01  0.9199E+00
  -6.540  0.8479E+00  0.9284E+00
  -6.530  0.1042E+01  0.9388E+00
  -6.520  0.1644E+01  0.9553E+00
  -6.510  0.1293E+01  0.9682E+00
  -6.500  0.1052E+01  0.9787E+00
  -6.490  0.2154E+01  0.1000E+01
  -6.480  0.1452E+01  0.1015E+01
  -6.470 -0.1770E+00  0.1013E+01
  -6.460 -0.1827E+00  0.1011E+01
  -6.450 -0.8734E-02  0.1011E+01
  -6.440  0.1712E+00  0.1013E+01
  -6.430  0.8787E+00  0.1022E+01
  -6.420  0.1513E+01  0.1037E+01
  -6.410  0.1553E+01  0.1052E+01
  -6.400  0.1702E+01  0.1069E+01
  -6.390  0.9710E+00  0.1079E+01
  -6.380  0.1530E-01  0.1079E+01
  -6.370  0.3045E+00  0.1082E+01
  -6.360  0.1225E+01  0.1094E+01
  -6.350  0.1256E+01  0.1107E+01
  -6.340  0.1110E+01  0.1118E+01
  -6.330  0.4949E+00  0.1123E+01
  -6.320 -0.1292E+00  0.1122E+01
  -6.310  0.1283E+00  0.1123E+01
  -6.300  0.1315E+01  0.1136E+01
  -6.290  0.3129E+01  0.1167E+01
  -6.280  0.2291E+01  0.1190E+01
  -6.270 -0.1271E-01  0.1190E+01
  -6.260 -0.2959E+00  0.1187E+01
  -6.250 -0.2265E-02  0.1187E+01
  -6.240  0.4103E+00  0.1191E+01
  -6.230  0.1157E+01  0.1203E+01
  -6.220  0.7714E+00  0.1211E+01
  -6.210 -0.6416E-01  0.1210E+01
  -6.200  0.2067E+00  0.1212E+01
  -6.190  0.1574E+01  0.1228E+01
  -6.180  0.2987E+01  0.1258E+01
  -6.170  0.2735E+01  0.1285E+01
  -6.160  0.1471E+01  0.1300E+01
  -6.150 -0.3974E-01  0.1299E+01
  -6.140 -0.2265E+00  0.1297E+01
  -6.130 -0.2866E-01  0.1297E+01
  -6.120  0.2131E+00  0.1299E+01
  -6.110  0.1701E+01  0.1316E+01
  -6.100  0.4439E+01  0.1360E+01
  -6.090  0.3973E+01  0.1400E+01
  -6.080  0.1795E+01  0.1418E+01
  -6.070  0.1867E+01  0.1437E+01
  -6.060  0.2338E+01  0.1460E+01
  -6.050  0.2144E+01  0.1482E+01
  -6.040  0.2154E+01  0.1503E+01
  -6.030  0.1775E+01  0.1521E+01
  -6.020  0.2164E+01  0.1542E+01
  -6.010  0.3151E+01  0.1574E+01
  -6.000  0.3317E+01  0.1607E+01
  -5.990  0.3098E+01  0.1638E+01
  -5.980  0.2222E+01  0.1660E+01
  -5.970  0.1347E+01  0.1674E+01
  -5.960  0.1361E+01  0.1687E+01
  -5.950  0.2003E+01  0.1707E+01
  -5.940  0.2421E+01  0.1732E+01
  -5.930  0.9100E+00  0.1741E+01
  -5.920 -0.1094E+00  0.1740E+01
  -5.910  0.1080E+01  0.1750E+01
  -5.900  0.2406E+01  0.1775E+01
  -5.890  0.1846E+01  0.1793E+01
  -5.880  0.2563E+01  0.1819E+01
  -5.870  0.2803E+01  0.1847E+01
  -5.860  0.5151E+00  0.1852E+01
  -5.850  0.3065E+00  0.1855E+01
  -5.840  0.1129E+01  0.1866E+01
  -5.830  0.4640E+00  0.1871E+01
  -5.820  0.3264E+00  0.1874E+01
  -5.810  0.1138E+01  0.1885E+01
  -5.800  0.6707E+00  0.1892E+01
  -5.790 -0.1121E+00  0.1891E+01
  -5.780 -0.8138E-01  0.1890E+01
  -5.770  0.1179E-01  0.1890E+01
  -5.760  0.2520E+00  0.1893E+01
  -5.750  0.9938E+00  0.1903E+01
  -5.740  0.1026E+01  0.1913E+01
  -5.730  0.5836E-01  0.1914E+01
  -5.720 -0.1296E+00  0.1912E+01
  -5.710  0.1090E-02  0.1912E+01
  -5.700  0.3047E+00  0.1915E+01
  -5.690  0.1414E+01  0.1930E+01
  -5.680  0.2160E+01  0.1951E+01
  -5.670  0.8273E+00  0.1959E+01
  -5.660 -0.2025E+00  0.1957E+01
  -5.650 -0.3003E-01  0.1957E+01
  -5.640  0.5907E+00  0.1963E+01
  -5.630  0.1218E+01  0.1975E+01
  -5.620  0.5153E+00  0.1980E+01
  -5.610  0.9578E-01  0.1981E+01
  -5.600  0.9115E+00  0.1990E+01
  -5.590  0.1042E+01  0.2001E+01
  -5.580  0.7763E-01  0.2002E+01
  -5.570 -0.1334E+00  0.2000E+01
  -5.560 -0.2270E-01  0.2000E+01
  -5.550 -0.9402E-03  0.2000E+01
  -5.540 -0.1163E-04  0.2000E+01
  -5.530 -0.4556E-07  0.2000E+01
  -5.520 -0.4550E-10  0.2000E+01
  -5.510  0.1356E-07  0.2000E+01
  -5.500  0.4868E-05  0.2000E+01
  -5.490  0.5769E-03  0.2000E+01
  -5.480  0.2230E-01  0.2000E+01
  -5.470  0.2747E+00  0.2003E+01
  -5.460  0.1027E+01  0.2013E+01
  -5.450  0.1045E+01  0.2024E+01
  -5.440  0.5030E+00  0.2029E+01
  -5.430  0.1072E+01  0.2039E+01
  -5.420  0.8223E+00  0.2048E+01
  -5.410  0.1171E+01  0.2059E+01
  -5.400  0.3390E+01  0.2093E+01
  -5.390  0.3489E+01  0.2128E+01
  -5.380  0.2238E+01  0.2151E+01
  -5.370  0.9028E+00  0.2160E+01
  -5.360  0.6320E+00  0.2166E+01
  -5.350  0.1891E+01  0.2185E+01
  -5.340  0.1629E+01  0.2201E+01
  -5.330  0.1213E+01  0.2213E+01
  -5.320  0.2344E+01  0.2237E+01
  -5.310  0.2106E+01  0.2258E+01
  -5.300  0.1884E+01  0.2277E+01
  -5.290  0.2772E+01  0.2304E+01
  -5.280  0.3576E+01  0.2340E+01
  -5.270  0.3862E+01  0.2379E+01
  -5.260  0.2081E+01  0.2399E+01
  -5.250  0.9743E+00  0.2409E+01
  -5.240  0.3610E+01  0.2445E+01
  -5.230  0.5278E+01  0.2498E+01
  -5.220  0.2247E+01  0.2521E+01
  -5.210  0.1595E+01  0.2537E+01
  -5.200  0.1733E+01  0.2554E+01
  -5.190  0.1022E+01  0.2564E+01
  -5.180  0.2825E+01  0.2592E+01
  -5.170  0.3049E+01  0.2623E+01
  -5.160  0.2320E+01  0.2646E+01
  -5.150  0.3642E+01  0.2682E+01
  -5.140  0.3755E+01  0.2720E+01
  -5.130  0.2487E+01  0.2745E+01
  -5.120  0.2045E+01  0.2765E+01
  -5.110  0.2407E+01  0.2789E+01
  -5.100  0.1970E+01  0.2809E+01
  -5.090  0.2319E+01  0.2832E+01
  -5.080  0.2211E+01  0.2854E+01
  -5.070  0.2638E+01  0.2881E+01
  -5.060  0.2579E+01  0.2907E+01
  -5.050  0.2415E+01  0.2931E+01
  -5.040  0.4022E+01  0.2971E+01
  -5.030  0.6310E+01  0.3034E+01
  -5.020  0.8617E+01  0.3120E+01
  -5.010  0.9849E+01  0.3219E+01
  -5.000  0.6814E+01  0.3287E+01
  -4.990  0.5683E+01  0.3344E+01
  -4.980  0.5923E+01  0.3403E+01
  -4.970  0.5204E+01  0.3455E+01
  -4.960  0.5428E+01  0.3509E+01
  -4.950  0.4736E+01  0.3557E+01
  -4.940  0.4620E+01  0.3603E+01
  -4.930  0.6823E+01  0.3671E+01
  -4.920  0.9225E+01  0.3763E+01
  -4.910  0.7386E+01  0.3837E+01
  -4.900  0.2726E+01  0.3864E+01
  -4.890  0.2244E+01  0.3887E+01
  -4.880  0.8255E+00  0.3895E+01
  -4.870 -0.1761E+00  0.3893E+01
  -4.860  0.6755E+00  0.3900E+01
  -4.850  0.1608E+01  0.3916E+01
  -4.840  0.1454E+01  0.3931E+01
  -4.830  0.5774E+00  0.3936E+01
  -4.820 -0.1292E+00  0.3935E+01
  -4.810  0.8825E-01  0.3936E+01
  -4.800  0.1360E+01  0.3950E+01
  -4.790  0.3439E+01  0.3984E+01
  -4.780  0.2719E+01  0.4011E+01
  -4.770  0.1024E+01  0.4021E+01
  -4.760  0.3771E+00  0.4025E+01
  -4.750  0.5142E+00  0.4030E+01
  -4.740  0.1899E+01  0.4049E+01
  -4.730  0.1761E+01  0.4067E+01
  -4.720  0.1976E+00  0.4069E+01
  -4.710  0.9348E-01  0.4070E+01
  -4.700  0.1106E+01  0.4081E+01
  -4.690  0.1710E+01  0.4098E+01
  -4.680  0.2299E+01  0.4121E+01
  -4.670  0.2013E+01  0.4141E+01
  -4.660  0.1479E+01  0.4156E+01
  -4.650  0.2417E+01  0.4180E+01
  -4.640  0.3493E+01  0.4215E+01
  -4.630  0.3620E+01  0.4251E+01
  -4.620  0.1980E+01  0.4271E+01
  -4.610  0.1215E+01  0.4283E+01
  -4.600  0.3225E+01  0.4315E+01
  -4.590  0.2467E+01  0.4340E+01
  -4.580  0.1213E+01  0.4352E+01
  -4.570  0.1495E+01  0.4367E+01
  -4.560  0.8680E+00  0.4376E+01
  -4.550  0.1014E+00  0.4377E+01
  -4.540  0.7094E+00  0.4384E+01
  -4.530  0.1381E+01  0.4398E+01
  -4.520  0.1393E+01  0.4412E+01
  -4.510  0.1957E+01  0.4431E+01
  -4.500  0.1864E+01  0.4450E+01
  -4.490  0.1221E+01  0.4462E+01
  -4.480  0.5748E+00  0.4468E+01
  -4.470  0.1822E+01  0.4486E+01
  -4.460  0.4029E+01  0.4526E+01
  -4.450  0.2772E+01  0.4554E+01
  -4.440  0.9219E-01  0.4555E+01
  -4.430  0.6393E+00  0.4561E+01
  -4.420  0.2418E+01  0.4586E+01
  -4.410  0.2251E+01  0.4608E+01
  -4.400  0.2921E+01  0.4637E+01
  -4.390  0.4996E+01  0.4687E+01
  -4.380  0.7701E+01  0.4764E+01
  -4.370  0.8475E+01  0.4849E+01
  -4.360  0.5845E+01  0.4907E+01
  -4.350  0.4665E+01  0.4954E+01
  -4.340  0.5433E+01  0.5008E+01
  -4.330  0.3830E+01  0.5047E+01
  -4.320  0.1659E+01  0.5063E+01
  -4.310  0.1366E+01  0.5077E+01
  -4.300  0.3635E+01  0.5113E+01
  -4.290  0.4610E+01  0.5159E+01
  -4.280  0.5758E+01  0.5217E+01
  -4.270  0.5650E+01  0.5274E+01
  -4.260  0.5055E+01  0.5324E+01
  -4.250  0.4467E+01  0.5369E+01
  -4.240  0.6334E+01  0.5432E+01
  -4.230  0.1097E+02  0.5542E+01
  -4.220  0.1131E+02  0.5655E+01
  -4.210  0.7835E+01  0.5733E+01
  -4.200  0.8553E+01  0.5819E+01
  -4.190  0.9316E+01  0.5912E+01
  -4.180  0.7528E+01  0.5987E+01
  -4.170  0.9202E+01  0.6079E+01
  -4.160  0.8489E+01  0.6164E+01
  -4.150  0.6979E+01  0.6234E+01
  -4.140  0.5348E+01  0.6287E+01
  -4.130  0.4815E+01  0.6336E+01
  -4.120  0.5092E+01  0.6386E+01
  -4.110  0.7134E+01  0.6458E+01
  -4.100  0.6880E+01  0.6527E+01
  -4.090  0.3975E+01  0.6566E+01
  -4.080  0.3710E+01  0.6603E+01
  -4.070  0.2719E+01  0.6631E+01
  -4.060  0.2684E+01  0.6657E+01
  -4.050  0.4386E+01  0.6701E+01
  -4.040  0.4727E+01  0.6749E+01
  -4.030  0.3880E+01  0.6787E+01
  -4.020  0.3706E+01  0.6824E+01
  -4.010  0.4124E+01  0.6866E+01
  -4.000  0.5321E+01  0.6919E+01
  -3.990  0.7099E+01  0.6990E+01
  -3.980  0.5766E+01  0.7048E+01
  -3.970  0.2626E+01  0.7074E+01
  -3.960  0.1364E+01  0.7087E+01
  -3.950  0.2181E+01  0.7109E+01
  -3.940  0.3931E+01  0.7149E+01
  -3.930  0.4147E+01  0.7190E+01
  -3.920  0.2862E+01  0.7219E+01
  -3.910  0.2260E+01  0.7241E+01
  -3.900  0.3589E+01  0.7277E+01
  -3.890  0.4993E+01  0.7327E+01
  -3.880  0.5086E+01  0.7378E+01
  -3.870  0.1541E+01  0.7393E+01
  -3.860 -0.6057E+00  0.7387E+01
  -3.850 -0.2473E+00  0.7385E+01
  -3.840 -0.1995E-01  0.7385E+01
  -3.830  0.1973E-01  0.7385E+01
  -3.820  0.2585E+00  0.7387E+01
  -3.810  0.1003E+01  0.7397E+01
  -3.800  0.1016E+01  0.7408E+01
  -3.790  0.5319E-01  0.7408E+01
  -3.780 -0.5162E-01  0.7408E+01
  -3.770  0.5479E+00  0.7413E+01
  -3.760  0.1215E+01  0.7425E+01
  -3.750  0.5429E+00  0.7431E+01
  -3.740 -0.1373E+00  0.7429E+01
  -3.730 -0.6658E-01  0.7429E+01
  -3.720 -0.5271E-02  0.7429E+01
  -3.710 -0.1151E-03  0.7429E+01
  -3.700  0.2719E-03  0.7429E+01
  -3.690  0.1550E-01  0.7429E+01
  -3.680  0.3119E+00  0.7432E+01
  -3.670  0.2277E+01  0.7455E+01
  -3.660  0.6242E+01  0.7517E+01
  -3.650  0.7345E+01  0.7590E+01
  -3.640  0.7203E+01  0.7663E+01
  -3.630  0.8997E+01  0.7752E+01
  -3.620  0.5774E+01  0.7810E+01
  -3.610  0.2182E+01  0.7832E+01
  -3.600  0.2327E+01  0.7855E+01
  -3.590  0.3193E+01  0.7887E+01
  -3.580  0.3109E+01  0.7918E+01
  -3.570  0.1904E+01  0.7937E+01
  -3.560  0.1395E+01  0.7951E+01
  -3.550  0.2356E+01  0.7975E+01
  -3.540  0.1930E+01  0.7994E+01
  -3.530  0.1630E+01  0.8010E+01
  -3.520  0.3659E+01  0.8047E+01
  -3.510  0.8490E+01  0.8132E+01
  -3.500  0.1326E+02  0.8265E+01
  -3.490  0.1514E+02  0.8416E+01
  -3.480  0.8554E+01  0.8502E+01
  -3.470 -0.3351E+00  0.8498E+01
  -3.460 -0.9356E+00  0.8489E+01
  -3.450  0.1267E+01  0.8501E+01
  -3.440  0.2326E+01  0.8525E+01
  -3.430  0.1380E+01  0.8539E+01
  -3.420  0.9688E+00  0.8548E+01
  -3.410  0.3371E+00  0.8552E+01
  -3.400 -0.1453E+00  0.8550E+01
  -3.390  0.1825E+00  0.8552E+01
  -3.380  0.1643E+01  0.8568E+01
  -3.370  0.3488E+01  0.8603E+01
  -3.360  0.1758E+01  0.8621E+01
  -3.350 -0.3032E+00  0.8618E+01
  -3.340 -0.2225E+00  0.8616E+01
  -3.330 -0.2326E-01  0.8615E+01
  -3.320  0.4447E-03  0.8615E+01
  -3.310  0.4462E-01  0.8616E+01
  -3.300  0.5650E+00  0.8621E+01
  -3.290  0.2315E+01  0.8645E+01
  -3.280  0.3029E+01  0.8675E+01
  -3.270  0.1053E+01  0.8685E+01
  -3.260 -0.2211E+00  0.8683E+01
  -3.250  0.6175E-01  0.8684E+01
  -3.240  0.1508E+01  0.8699E+01
  -3.230  0.3678E+01  0.8736E+01
  -3.220  0.3654E+01  0.8772E+01
  -3.210  0.3366E+01  0.8806E+01
  -3.200  0.4914E+01  0.8855E+01
  -3.190  0.6258E+01  0.8918E+01
  -3.180  0.4875E+01  0.8966E+01
  -3.170  0.3809E+01  0.9004E+01
  -3.160  0.3664E+01  0.9041E+01
  -3.150  0.2097E+01  0.9062E+01
  -3.140  0.1996E+01  0.9082E+01
  -3.130  0.3801E+01  0.9120E+01
  -3.120  0.3815E+01  0.9158E+01
  -3.110  0.1972E+01  0.9178E+01
  -3.100  0.2693E+01  0.9205E+01
  -3.090  0.4617E+01  0.9251E+01
  -3.080  0.4238E+01  0.9293E+01
  -3.070  0.3047E+01  0.9324E+01
  -3.060  0.4078E+01  0.9365E+01
  -3.050  0.4014E+01  0.9405E+01
  -3.040  0.3763E+01  0.9442E+01
  -3.030  0.4869E+01  0.9491E+01
  -3.020  0.2881E+01  0.9520E+01
  -3.010  0.1038E+01  0.9530E+01
  -3.000  0.8867E+00  0.9539E+01
  -2.990  0.5695E+00  0.9545E+01
  -2.980  0.1509E+01  0.9560E+01
  -2.970  0.2780E+01  0.9588E+01
  -2.960  0.1912E+01  0.9607E+01
  -2.950  0.2350E+00  0.9609E+01
  -2.940  0.5778E+00  0.9615E+01
  -2.930  0.1125E+01  0.9626E+01
  -2.920  0.4765E+00  0.9631E+01
  -2.910  0.1012E+01  0.9641E+01
  -2.900  0.2079E+01  0.9662E+01
  -2.890  0.2344E+01  0.9685E+01
  -2.880  0.1072E+01  0.9696E+01
  -2.870 -0.1119E+00  0.9695E+01
  -2.860  0.5139E+00  0.9700E+01
  -2.850  0.1580E+01  0.9716E+01
  -2.840  0.1595E+01  0.9732E+01
  -2.830  0.7327E+00  0.9739E+01
  -2.820  0.4691E+00  0.9744E+01
  -2.810  0.1924E+01  0.9763E+01
  -2.800  0.2135E+01  0.9784E+01
  -2.790  0.1086E+01  0.9795E+01
  -2.780  0.8075E+00  0.9803E+01
  -2.770  0.4392E-01  0.9804E+01
  -2.760  0.8311E-02  0.9804E+01
  -2.750  0.8133E+00  0.9812E+01
  -2.740  0.1686E+01  0.9829E+01
  -2.730  0.1563E+01  0.9845E+01
  -2.720  0.1175E+01  0.9856E+01
  -2.710  0.1827E+01  0.9875E+01
  -2.700  0.1682E+01  0.9891E+01
  -2.690  0.2206E+00  0.9894E+01
  -2.680  0.3463E+00  0.9897E+01
  -2.670  0.1173E+01  0.9909E+01
  -2.660  0.6252E+00  0.9915E+01
  -2.650  0.4598E+00  0.9920E+01
  -2.640  0.1154E+01  0.9931E+01
  -2.630  0.5896E+00  0.9937E+01
  -2.620  0.7069E+00  0.9944E+01
  -2.610  0.2377E+01  0.9968E+01
  -2.600  0.2206E+01  0.9990E+01
  -2.590  0.1033E+01  0.1000E+02
  -2.580  0.1916E+00  0.1000E+02
  -2.570 -0.1394E+00  0.1000E+02
  -2.560  0.3793E+00  0.1000E+02
  -2.550  0.1832E+01  0.1002E+02
  -2.540  0.2160E+01  0.1004E+02
  -2.530  0.2772E+00  0.1005E+02
  -2.520 -0.1821E+00  0.1005E+02
  -2.510  0.5749E+00  0.1005E+02
  -2.500  0.1253E+01  0.1006E+02
  -2.490  0.9417E+00  0.1007E+02
  -2.480  0.1795E+01  0.1009E+02
  -2.470  0.2426E+01  0.1012E+02
  -2.460  0.1363E+01  0.1013E+02
  -2.450  0.5196E+00  0.1013E+02
  -2.440 -0.1273E+00  0.1013E+02
  -2.430 -0.3200E-01  0.1013E+02
  -2.420  0.5127E+00  0.1014E+02
  -2.410  0.1219E+01  0.1015E+02
  -2.400  0.8088E+00  0.1016E+02
  -2.390  0.9729E+00  0.1017E+02
  -2.380  0.1998E+01  0.1019E+02
  -2.370  0.1315E+01  0.1020E+02
  -2.360  0.6525E+00  0.1021E+02
  -2.350  0.1887E+01  0.1023E+02
  -2.340  0.1731E+01  0.1024E+02
  -2.330  0.7457E-01  0.1024E+02
  -2.320 -0.2173E+00  0.1024E+02
  -2.310  0.6287E-01  0.1024E+02
  -2.300  0.7248E+00  0.1025E+02
  -2.290  0.1786E+01  0.1027E+02
  -2.280  0.1663E+01  0.1028E+02
  -2.270  0.5826E+00  0.1029E+02
  -2.260  0.6920E+00  0.1030E+02
  -2.250  0.1067E+01  0.1031E+02
  -2.240  0.4276E+00  0.1031E+02
  -2.230  0.1352E+01  0.1033E+02
  -2.220  0.2416E+01  0.1035E+02
  -2.210  0.1207E+01  0.1036E+02
  -2.200  0.9192E+00  0.1037E+02
  -2.190  0.5074E+00  0.1038E+02
  -2.180  0.3027E+00  0.1038E+02
  -2.170  0.1109E+01  0.1039E+02
  -2.160  0.7158E+00  0.1040E+02
  -2.150 -0.8912E-01  0.1040E+02
  -2.140  0.8201E-01  0.1040E+02
  -2.130  0.8759E+00  0.1041E+02
  -2.120  0.1613E+01  0.1042E+02
  -2.110  0.1963E+01  0.1044E+02
  -2.100  0.2952E+01  0.1047E+02
  -2.090  0.2925E+01  0.1050E+02
  -2.080  0.9829E+00  0.1051E+02
  -2.070  0.1814E+00  0.1051E+02
  -2.060  0.1084E+01  0.1052E+02
  -2.050  0.1167E+01  0.1053E+02
  -2.040  0.1579E+01  0.1055E+02
  -2.030  0.4023E+01  0.1059E+02
  -2.020  0.8483E+01  0.1068E+02
  -2.010  0.6770E+01  0.1074E+02
  -2.000  0.1201E+01  0.1076E+02
  -1.990  0.6876E+00  0.1076E+02
  -1.980  0.2313E+01  0.1079E+02
  -1.970  0.2442E+01  0.1081E+02
  -1.960  0.1802E+01  0.1083E+02
  -1.950  0.1995E+01  0.1085E+02
  -1.940  0.1217E+01  0.1086E+02
  -1.930  0.6218E-01  0.1086E+02
  -1.920  0.5981E+00  0.1087E+02
  -1.910  0.1158E+01  0.1088E+02
  -1.900  0.2831E+00  0.1088E+02
  -1.890 -0.1318E+00  0.1088E+02
  -1.880  0.2742E+00  0.1088E+02
  -1.870  0.1583E+01  0.1090E+02
  -1.860  0.2301E+01  0.1092E+02
  -1.850  0.5490E+00  0.1093E+02
  -1.840 -0.2446E+00  0.1092E+02
  -1.830  0.3309E+00  0.1093E+02
  -1.820  0.1193E+01  0.1094E+02
  -1.810  0.1179E+01  0.1095E+02
  -1.800  0.1072E+01  0.1096E+02
  -1.790  0.7539E+00  0.1097E+02
  -1.780  0.6083E+00  0.1098E+02
  -1.770  0.2120E+01  0.1100E+02
  -1.760  0.1731E+01  0.1101E+02
  -1.750 -0.7614E-01  0.1101E+02
  -1.740 -0.6680E-01  0.1101E+02
  -1.730  0.7660E+00  0.1102E+02
  -1.720  0.1176E+01  0.1103E+02
  -1.710  0.2997E+00  0.1104E+02
  -1.700  0.2164E+00  0.1104E+02
  -1.690  0.1086E+01  0.1105E+02
  -1.680  0.8605E+00  0.1106E+02
  -1.670  0.2137E+00  0.1106E+02
  -1.660  0.9396E+00  0.1107E+02
  -1.650  0.1295E+01  0.1108E+02
  -1.640  0.1261E+01  0.1109E+02
  -1.630  0.1672E+01  0.1111E+02
  -1.620  0.1133E+01  0.1112E+02
  -1.610  0.9003E-01  0.1112E+02
  -1.600 -0.7034E-01  0.1112E+02
  -1.590  0.6396E+00  0.1113E+02
  -1.580  0.1639E+01  0.1115E+02
  -1.570  0.1629E+01  0.1116E+02
  -1.560  0.6632E+00  0.1117E+02
  -1.550  0.3519E+00  0.1117E+02
  -1.540  0.1717E+01  0.1119E+02
  -1.530  0.5035E+01  0.1124E+02
  -1.520  0.1223E+02  0.1136E+02
  -1.510  0.1759E+02  0.1154E+02
  -1.500  0.1503E+02  0.1169E+02
  -1.490  0.6783E+01  0.1176E+02
  -1.480  0.1583E+01  0.1177E+02
  -1.470  0.9386E+00  0.1178E+02
  -1.460  0.2049E+01  0.1180E+02
  -1.450  0.2479E+01  0.1183E+02
  -1.440  0.2944E+01  0.1186E+02
  -1.430  0.2821E+01  0.1188E+02
  -1.420  0.1474E+01  0.1190E+02
  -1.410  0.1183E+01  0.1191E+02
  -1.400  0.2134E+01  0.1193E+02
  -1.390  0.2184E+01  0.1195E+02
  -1.380  0.1611E+01  0.1197E+02
  -1.370  0.2126E+01  0.1199E+02
  -1.360  0.1528E+01  0.1201E+02
  -1.350  0.7437E+00  0.1201E+02
  -1.340  0.1649E+01  0.1203E+02
  -1.330  0.2745E+01  0.1206E+02
  -1.320  0.2873E+01  0.1209E+02
  -1.310  0.9257E+00  0.1210E+02
  -1.300  0.7970E+00  0.1210E+02
  -1.290  0.1957E+01  0.1212E+02
  -1.280  0.2369E+01  0.1215E+02
  -1.270  0.1139E+01  0.1216E+02
  -1.260 -0.3349E-01  0.1216E+02
  -1.250  0.8039E+00  0.1217E+02
  -1.240  0.1987E+01  0.1219E+02
  -1.230  0.2240E+01  0.1221E+02
  -1.220  0.1559E+01  0.1222E+02
  -1.210  0.9730E+00  0.1223E+02
  -1.200  0.1774E+01  0.1225E+02
  -1.190  0.2987E+01  0.1228E+02
  -1.180  0.3869E+01  0.1232E+02
  -1.170  0.1674E+01  0.1234E+02
  -1.160 -0.3367E+00  0.1233E+02
  -1.150  0.2183E+00  0.1233E+02
  -1.140  0.1316E+01  0.1235E+02
  -1.130  0.2036E+01  0.1237E+02
  -1.120  0.3544E+01  0.1240E+02
  -1.110  0.3923E+01  0.1244E+02
  -1.100  0.4317E+01  0.1249E+02
  -1.090  0.4910E+01  0.1254E+02
  -1.080  0.3335E+01  0.1257E+02
  -1.070  0.3022E+01  0.1260E+02
  -1.060  0.3664E+01  0.1264E+02
  -1.050  0.2680E+01  0.1266E+02
  -1.040  0.1904E+01  0.1268E+02
  -1.030  0.1718E+01  0.1270E+02
  -1.020  0.1879E+01  0.1272E+02
  -1.010  0.3139E+01  0.1275E+02
  -1.000  0.4002E+01  0.1279E+02
  -0.990  0.4992E+01  0.1284E+02
  -0.980  0.5931E+01  0.1290E+02
  -0.970  0.3996E+01  0.1294E+02
  -0.960  0.4475E+01  0.1298E+02
  -0.950  0.3717E+01  0.1302E+02
  -0.940  0.4344E+01  0.1306E+02
  -0.930  0.5054E+01  0.1311E+02
  -0.920  0.2495E+01  0.1314E+02
  -0.910  0.7729E+00  0.1315E+02
  -0.900 -0.1519E+00  0.1315E+02
  -0.890  0.3919E-01  0.1315E+02
  -0.880  0.9329E+00  0.1315E+02
  -0.870  0.1393E+01  0.1317E+02
  -0.860  0.1771E+01  0.1319E+02
  -0.850  0.2541E+01  0.1321E+02
  -0.840  0.1571E+01  0.1323E+02
  -0.830  0.7342E+00  0.1323E+02
  -0.820  0.9112E+00  0.1324E+02
  -0.810  0.2040E+01  0.1326E+02
  -0.800  0.1371E+01  0.1328E+02
  -0.790  0.4763E+00  0.1328E+02
  -0.780  0.1350E+01  0.1330E+02
  -0.770  0.2393E+01  0.1332E+02
  -0.760  0.4257E+01  0.1336E+02
  -0.750  0.4347E+01  0.1341E+02
  -0.740  0.1802E+01  0.1342E+02
  -0.730  0.2397E+01  0.1345E+02
  -0.720  0.3197E+01  0.1348E+02
  -0.710  0.3020E+01  0.1351E+02
  -0.700  0.4607E+01  0.1356E+02
  -0.690  0.3616E+01  0.1359E+02
  -0.680  0.2500E+01  0.1362E+02
  -0.670  0.3774E+01  0.1366E+02
  -0.660  0.7404E+01  0.1373E+02
  -0.650  0.1129E+02  0.1384E+02
  -0.640  0.1150E+02  0.1396E+02
  -0.630  0.9778E+01  0.1406E+02
  -0.620  0.4980E+01  0.1411E+02
  -0.610  0.1203E+01  0.1412E+02
  -0.600  0.1675E+01  0.1413E+02
  -0.590  0.2648E+01  0.1416E+02
  -0.580  0.3400E+01  0.1419E+02
  -0.570  0.3664E+01  0.1423E+02
  -0.560  0.3674E+01  0.1427E+02
  -0.550  0.4512E+01  0.1431E+02
  -0.540  0.3479E+01  0.1435E+02
  -0.530  0.1040E+01  0.1436E+02
  -0.520  0.3249E+00  0.1436E+02
  -0.510  0.2004E+01  0.1438E+02
  -0.500  0.2028E+01  0.1440E+02
  -0.490  0.9797E+00  0.1441E+02
  -0.480  0.8153E+00  0.1442E+02
  -0.470  0.4202E+00  0.1442E+02
  -0.460  0.1037E+01  0.1443E+02
  -0.450  0.7982E+00  0.1444E+02
  -0.440  0.5526E+00  0.1445E+02
  -0.430  0.2495E+01  0.1447E+02
  -0.420  0.3859E+01  0.1451E+02
  -0.410  0.2036E+01  0.1453E+02
  -0.400  0.2883E+00  0.1453E+02
  -0.390  0.8082E+00  0.1454E+02
  -0.380  0.8806E+00  0.1455E+02
  -0.370  0.2771E+00  0.1455E+02
  -0.360  0.9627E+00  0.1456E+02
  -0.350  0.1193E+01  0.1458E+02
  -0.340  0.1529E+01  0.1459E+02
  -0.330  0.3039E+01  0.1462E+02
  -0.320  0.1993E+01  0.1464E+02
  -0.310  0.4811E-01  0.1464E+02
  -0.300  0.6992E+00  0.1465E+02
  -0.290  0.2286E+01  0.1467E+02
  -0.280  0.1361E+01  0.1469E+02
  -0.270 -0.1184E-01  0.1469E+02
  -0.260  0.8883E+00  0.1469E+02
  -0.250  0.2351E+01  0.1472E+02
  -0.240  0.2338E+01  0.1474E+02
  -0.230  0.9618E+00  0.1475E+02
  -0.220 -0.9350E-01  0.1475E+02
  -0.210  0.3088E+00  0.1475E+02
  -0.200  0.1516E+01  0.1477E+02
  -0.190  0.2112E+01  0.1479E+02
  -0.180  0.1792E+01  0.1481E+02
  -0.170  0.1031E+01  0.1482E+02
  -0.160  0.8246E+00  0.1483E+02
  -0.150  0.1947E+01  0.1484E+02
  -0.140  0.2623E+01  0.1487E+02
  -0.130  0.1863E+01  0.1489E+02
  -0.120  0.2936E+01  0.1492E+02
  -0.110  0.7868E+01  0.1500E+02
  -0.100  0.1438E+02  0.1514E+02
  -0.090  0.1455E+02  0.1529E+02
  -0.080  0.6543E+01  0.1535E+02
  -0.070  0.1153E+01  0.1536E+02
  -0.060  0.8535E+00  0.1537E+02
  -0.050  0.1553E+01  0.1539E+02
  -0.040  0.2268E+01  0.1541E+02
  -0.030  0.2108E+01  0.1543E+02
  -0.020  0.1023E+01  0.1544E+02
  -0.010  0.1000E+01  0.1545E+02
  -0.000  0.8745E+00  0.1546E+02
   0.010  0.1122E+01  0.1547E+02
   0.020  0.9943E+00  0.1548E+02
   0.030  0.1984E+01  0.1550E+02
   0.040  0.2313E+01  0.1552E+02
   0.050  0.2416E+01  0.1555E+02
   0.060  0.3147E+01  0.1558E+02
   0.070  0.2220E+01  0.1560E+02
   0.080  0.2055E+01  0.1562E+02
   0.090  0.9242E+00  0.1563E+02
   0.100  0.8038E+00  0.1564E+02
   0.110  0.2022E+01  0.1566E+02
   0.120  0.1651E+01  0.1568E+02
   0.130  0.1198E+01  0.1569E+02
   0.140  0.1570E+01  0.1570E+02
   0.150  0.2936E+01  0.1573E+02
   0.160  0.3213E+01  0.1577E+02
   0.170  0.1781E+01  0.1578E+02
   0.180  0.1480E+01  0.1580E+02
   0.190  0.1733E+01  0.1582E+02
   0.200  0.5051E+01  0.1587E+02
   0.210  0.8294E+01  0.1595E+02
   0.220  0.6955E+01  0.1602E+02
   0.230  0.8124E+01  0.1610E+02
   0.240  0.6961E+01  0.1617E+02
   0.250  0.3795E+01  0.1621E+02
   0.260  0.2863E+01  0.1624E+02
   0.270  0.3996E+01  0.1628E+02
   0.280  0.2864E+01  0.1631E+02
   0.290  0.3031E+01  0.1634E+02
   0.300  0.3774E+01  0.1637E+02
   0.310  0.3334E+01  0.1641E+02
   0.320  0.4708E+01  0.1645E+02
   0.330  0.6253E+01  0.1652E+02
   0.340  0.6613E+01  0.1658E+02
   0.350  0.4085E+01  0.1662E+02
   0.360  0.9759E+00  0.1663E+02
   0.370  0.1571E+01  0.1665E+02
   0.380  0.1337E+01  0.1666E+02
   0.390  0.1567E+00  0.1666E+02
   0.400  0.7789E+00  0.1667E+02
   0.410  0.1391E+01  0.1669E+02
   0.420  0.1256E+01  0.1670E+02
   0.430  0.1234E+01  0.1671E+02
   0.440  0.1567E+01  0.1673E+02
   0.450  0.1824E+01  0.1674E+02
   0.460  0.6177E+00  0.1675E+02
   0.470  0.5794E-01  0.1675E+02
   0.480  0.9121E+00  0.1676E+02
   0.490  0.1170E+01  0.1677E+02
   0.500  0.8761E+00  0.1678E+02
   0.510  0.1172E+01  0.1679E+02
   0.520  0.9793E+00  0.1680E+02
   0.530  0.1057E+01  0.1681E+02
   0.540  0.5500E+00  0.1682E+02
   0.550  0.1336E+01  0.1683E+02
   0.560  0.2268E+01  0.1685E+02
   0.570  0.6680E+00  0.1686E+02
   0.580 -0.2779E+00  0.1686E+02
   0.590 -0.9274E-01  0.1686E+02
   0.600  0.1882E-01  0.1686E+02
   0.610  0.3703E+00  0.1686E+02
   0.620  0.1848E+01  0.1688E+02
   0.630  0.3142E+01  0.1691E+02
   0.640  0.1611E+01  0.1693E+02
   0.650  0.6278E-01  0.1693E+02
   0.660  0.6887E+00  0.1693E+02
   0.670  0.1073E+01  0.1695E+02
   0.680  0.1409E+00  0.1695E+02
   0.690 -0.1414E+00  0.1695E+02
   0.700 -0.3968E-02  0.1695E+02
   0.710  0.2868E+00  0.1695E+02
   0.720  0.1059E+01  0.1696E+02
   0.730  0.1207E+01  0.1697E+02
   0.740  0.1147E+01  0.1698E+02
   0.750  0.1955E+01  0.1700E+02
   0.760  0.2107E+01  0.1702E+02
   0.770  0.1217E+01  0.1704E+02
   0.780  0.3317E-02  0.1704E+02
   0.790 -0.1772E+00  0.1703E+02
   0.800  0.5962E-01  0.1703E+02
   0.810  0.6245E+00  0.1704E+02
   0.820  0.1218E+01  0.1705E+02
   0.830  0.4691E+00  0.1706E+02
   0.840 -0.6645E-01  0.1706E+02
   0.850  0.5359E+00  0.1706E+02
   0.860  0.1444E+01  0.1708E+02
   0.870  0.1494E+01  0.1709E+02
   0.880  0.9589E+00  0.1710E+02
   0.890  0.4166E+00  0.1710E+02
   0.900  0.1080E+01  0.1712E+02
   0.910  0.1354E+01  0.1713E+02
   0.920  0.1151E+01  0.1714E+02
   0.930  0.5635E+00  0.1715E+02
   0.940  0.5778E+00  0.1715E+02
   0.950  0.1135E+01  0.1716E+02
   0.960  0.3347E+00  0.1717E+02
   0.970 -0.1522E+00  0.1717E+02
   0.980 -0.4552E-01  0.1716E+02
   0.990  0.5063E-02  0.1716E+02
   1.000  0.1546E+00  0.1717E+02
   1.010  0.1033E+01  0.1718E+02
   1.020  0.2431E+01  0.1720E+02
   1.030  0.2283E+01  0.1722E+02
   1.040  0.1043E+01  0.1723E+02
   1.050  0.5392E+00  0.1724E+02
   1.060  0.1060E+01  0.1725E+02
   1.070  0.4488E+00  0.1725E+02
   1.080 -0.1464E+00  0.1725E+02
   1.090 -0.5878E-01  0.1725E+02
   1.100  0.1005E-01  0.1725E+02
   1.110  0.2406E+00  0.1726E+02
   1.120  0.1334E+01  0.1727E+02
   1.130  0.2298E+01  0.1729E+02
   1.140  0.8820E+00  0.1730E+02
   1.150 -0.1942E+00  0.1730E+02
   1.160  0.3308E+00  0.1730E+02
   1.170  0.1168E+01  0.1731E+02
   1.180  0.7164E+00  0.1732E+02
   1.190 -0.9883E-01  0.1732E+02
   1.200 -0.2511E-01  0.1732E+02
   1.210  0.6664E+00  0.1733E+02
   1.220  0.2280E+01  0.1735E+02
   1.230  0.2414E+01  0.1737E+02
   1.240  0.1159E+01  0.1738E+02
   1.250  0.2400E+00  0.1739E+02
   1.260 -0.1750E+00  0.1739E+02
   1.270 -0.5875E-01  0.1738E+02
   1.280 -0.4126E-02  0.1738E+02
   1.290  0.9437E-03  0.1738E+02
   1.300  0.3424E-01  0.1738E+02
   1.310  0.3718E+00  0.1739E+02
   1.320  0.1356E+01  0.1740E+02
   1.330  0.2023E+01  0.1742E+02
   1.340  0.1929E+01  0.1744E+02
   1.350  0.1087E+01  0.1745E+02
   1.360 -0.5829E-02  0.1745E+02
   1.370 -0.2872E-01  0.1745E+02
   1.380  0.7347E+00  0.1746E+02
   1.390  0.1190E+01  0.1747E+02
   1.400  0.3616E+00  0.1748E+02
   1.410  0.3624E+00  0.1748E+02
   1.420  0.1166E+01  0.1749E+02
   1.430  0.6977E+00  0.1750E+02
   1.440  0.4607E+00  0.1750E+02
   1.450  0.1142E+01  0.1751E+02
   1.460  0.5136E+00  0.1752E+02
   1.470 -0.1402E+00  0.1752E+02
   1.480 -0.4982E-01  0.1752E+02
   1.490  0.2554E+00  0.1752E+02
   1.500  0.1483E+01  0.1753E+02
   1.510  0.2405E+01  0.1756E+02
   1.520  0.9096E+00  0.1757E+02
   1.530  0.7804E+00  0.1758E+02
   1.540  0.1518E+01  0.1759E+02
   1.550  0.1268E+01  0.1760E+02
   1.560  0.4654E+00  0.1761E+02
   1.570  0.4096E+00  0.1761E+02
   1.580  0.1151E+01  0.1762E+02
   1.590  0.5345E+00  0.1763E+02
   1.600 -0.1351E+00  0.1763E+02
   1.610  0.6746E-02  0.1763E+02
   1.620  0.6440E+00  0.1763E+02
   1.630  0.2123E+01  0.1765E+02
   1.640  0.3044E+01  0.1769E+02
   1.650  0.3508E+01  0.1772E+02
   1.660  0.6912E+01  0.1779E+02
   1.670  0.8117E+01  0.1787E+02
   1.680  0.4717E+01  0.1792E+02
   1.690  0.3269E+01  0.1795E+02
   1.700  0.2235E+01  0.1797E+02
   1.710  0.2128E+01  0.1799E+02
   1.720  0.2143E+01  0.1802E+02
   1.730  0.3008E+01  0.1805E+02
   1.740  0.2492E+01  0.1807E+02
   1.750  0.5126E+00  0.1808E+02
   1.760  0.1397E+01  0.1809E+02
   1.770  0.1899E+01  0.1811E+02
   1.780  0.9719E+00  0.1812E+02
   1.790  0.9935E+00  0.1813E+02
   1.800  0.7294E+00  0.1814E+02
   1.810  0.9257E+00  0.1814E+02
   1.820  0.2427E+01  0.1817E+02
   1.830  0.2391E+01  0.1819E+02
   1.840  0.8622E+00  0.1820E+02
   1.850  0.3132E+00  0.1820E+02
   1.860  0.1722E+01  0.1822E+02
   1.870  0.2024E+01  0.1824E+02
   1.880  0.5417E+00  0.1825E+02
   1.890  0.1011E+01  0.1826E+02
   1.900  0.2211E+01  0.1828E+02
   1.910  0.1962E+01  0.1830E+02
   1.920  0.1009E+01  0.1831E+02
   1.930  0.7775E-01  0.1831E+02
   1.940  0.4164E+00  0.1831E+02
   1.950  0.1374E+01  0.1833E+02
   1.960  0.1426E+01  0.1834E+02
   1.970  0.9912E+00  0.1835E+02
   1.980  0.1922E+00  0.1835E+02
   1.990  0.5189E+00  0.1836E+02
   2.000  0.1655E+01  0.1838E+02
   2.010  0.1730E+01  0.1839E+02
   2.020  0.1071E+01  0.1840E+02
   2.030  0.1118E+01  0.1842E+02
   2.040  0.1295E+01  0.1843E+02
   2.050  0.2146E+01  0.1845E+02
   2.060  0.1553E+01  0.1847E+02
   2.070  0.1190E-01  0.1847E+02
   2.080  0.6212E+00  0.1847E+02
   2.090  0.1300E+01  0.1848E+02
   2.100  0.1334E+01  0.1850E+02
   2.110  0.2222E+01  0.1852E+02
   2.120  0.1430E+01  0.1853E+02
   2.130  0.8235E+00  0.1854E+02
   2.140  0.8290E+00  0.1855E+02
   2.150  0.2363E+00  0.1855E+02
   2.160  0.1287E+01  0.1857E+02
   2.170  0.2421E+01  0.1859E+02
   2.180  0.1322E+01  0.1860E+02
   2.190  0.2124E+01  0.1862E+02
   2.200  0.4454E+01  0.1867E+02
   2.210  0.5055E+01  0.1872E+02
   2.220  0.4581E+01  0.1877E+02
   2.230  0.3956E+01  0.1881E+02
   2.240  0.3801E+01  0.1884E+02
   2.250  0.3580E+01  0.1888E+02
   2.260  0.1663E+01  0.1890E+02
   2.270  0.8513E+00  0.1890E+02
   2.280  0.1357E+01  0.1892E+02
   2.290  0.2719E+01  0.1895E+02
   2.300  0.3097E+01  0.1898E+02
   2.310  0.3065E+01  0.1901E+02
   2.320  0.1164E+01  0.1902E+02
   2.330  0.5611E+00  0.1902E+02
   2.340  0.1829E+01  0.1904E+02
   2.350  0.3100E+01  0.1907E+02
   2.360  0.4425E+01  0.1912E+02
   2.370  0.5364E+01  0.1917E+02
   2.380  0.5101E+01  0.1922E+02
   2.390  0.4136E+01  0.1926E+02
   2.400  0.2362E+01  0.1929E+02
   2.410  0.2425E+01  0.1931E+02
   2.420  0.4775E+01  0.1936E+02
   2.430  0.4079E+01  0.1940E+02
   2.440  0.2764E+01  0.1943E+02
   2.450  0.2144E+01  0.1945E+02
   2.460  0.1982E+01  0.1947E+02
   2.470  0.4592E+01  0.1951E+02
   2.480  0.5046E+01  0.1957E+02
   2.490  0.1884E+01  0.1958E+02
   2.500  0.2860E+01  0.1961E+02
   2.510  0.3018E+01  0.1964E+02
   2.520  0.3783E+01  0.1968E+02
   2.530  0.5507E+01  0.1974E+02
   2.540  0.3923E+01  0.1977E+02
   2.550  0.1643E+01  0.1979E+02
   2.560  0.2157E+01  0.1981E+02
   2.570  0.6043E+01  0.1987E+02
   2.580  0.1061E+02  0.1998E+02
   2.590  0.1233E+02  0.2010E+02
   2.600  0.7474E+01  0.2018E+02
   2.610  0.2091E+01  0.2020E+02
   2.620  0.1558E+01  0.2021E+02
   2.630  0.2180E+01  0.2024E+02
   2.640  0.2867E+01  0.2026E+02
   2.650  0.2198E+01  0.2029E+02
   2.660  0.2139E+01  0.2031E+02
   2.670  0.2982E+01  0.2034E+02
   2.680  0.3819E+01  0.2038E+02
   2.690  0.4261E+01  0.2042E+02
   2.700  0.2670E+01  0.2045E+02
   2.710  0.1553E+01  0.2046E+02
   2.720  0.1986E+01  0.2048E+02
   2.730  0.3192E+01  0.2051E+02
   2.740  0.4270E+01  0.2056E+02
   2.750  0.8525E+01  0.2064E+02
   2.760  0.1466E+02  0.2079E+02
   2.770  0.1426E+02  0.2093E+02
   2.780  0.9218E+01  0.2102E+02
   2.790  0.8685E+01  0.2111E+02
   2.800  0.9183E+01  0.2120E+02
   2.810  0.1127E+02  0.2131E+02
   2.820  0.1234E+02  0.2144E+02
   2.830  0.7798E+01  0.2151E+02
   2.840  0.6375E+01  0.2158E+02
   2.850  0.4913E+01  0.2163E+02
   2.860  0.6344E+01  0.2169E+02
   2.870  0.6073E+01  0.2175E+02
   2.880  0.4580E+01  0.2180E+02
   2.890  0.7661E+01  0.2187E+02
   2.900  0.9374E+01  0.2197E+02
   2.910  0.8986E+01  0.2206E+02
   2.920  0.5641E+01  0.2211E+02
   2.930  0.1429E+01  0.2213E+02
   2.940  0.2314E+01  0.2215E+02
   2.950  0.4523E+01  0.2220E+02
   2.960  0.5778E+01  0.2225E+02
   2.970  0.6218E+01  0.2232E+02
   2.980  0.3875E+01  0.2236E+02
   2.990  0.2153E+01  0.2238E+02
   3.000  0.2002E+01  0.2240E+02
   3.010  0.1831E+01  0.2242E+02
   3.020  0.1873E+01  0.2243E+02
   3.030  0.2145E+01  0.2246E+02
   3.040  0.2483E+01  0.2248E+02
   3.050  0.2556E+01  0.2251E+02
   3.060  0.4862E+01  0.2255E+02
   3.070  0.5525E+01  0.2261E+02
   3.080  0.1582E+01  0.2263E+02
   3.090  0.7881E+00  0.2263E+02
   3.100  0.5515E+01  0.2269E+02
   3.110  0.1206E+02  0.2281E+02
   3.120  0.1080E+02  0.2292E+02
   3.130  0.4774E+01  0.2297E+02
   3.140  0.4635E+01  0.2301E+02
   3.150  0.8155E+01  0.2309E+02
   3.160  0.6728E+01  0.2316E+02
   3.170  0.4109E+01  0.2320E+02
   3.180  0.3375E+01  0.2324E+02
   3.190  0.3797E+01  0.2327E+02
   3.200  0.4637E+01  0.2332E+02
   3.210  0.5576E+01  0.2338E+02
   3.220  0.4142E+01  0.2342E+02
   3.230  0.2331E+01  0.2344E+02
   3.240  0.1333E+01  0.2345E+02
   3.250  0.1229E+01  0.2347E+02
   3.260  0.3062E+01  0.2350E+02
   3.270  0.2693E+01  0.2352E+02
   3.280  0.1116E+01  0.2353E+02
   3.290  0.2586E+01  0.2356E+02
   3.300  0.4522E+01  0.2361E+02
   3.310  0.4325E+01  0.2365E+02
   3.320  0.2157E+01  0.2367E+02
   3.330  0.1295E+01  0.2368E+02
   3.340  0.1736E+01  0.2370E+02
   3.350  0.3092E+01  0.2373E+02
   3.360  0.3969E+01  0.2377E+02
   3.370  0.3991E+01  0.2381E+02
   3.380  0.3727E+01  0.2385E+02
   3.390  0.2823E+01  0.2388E+02
   3.400  0.3209E+01  0.2391E+02
   3.410  0.1377E+01  0.2392E+02
   3.420  0.1397E+01  0.2394E+02
   3.430  0.4298E+01  0.2398E+02
   3.440  0.5321E+01  0.2403E+02
   3.450  0.3158E+01  0.2406E+02
   3.460  0.3222E+01  0.2410E+02
   3.470  0.4025E+01  0.2414E+02
   3.480  0.2307E+01  0.2416E+02
   3.490  0.2130E+00  0.2416E+02
   3.500  0.1892E+01  0.2418E+02
   3.510  0.4568E+01  0.2423E+02
   3.520  0.4793E+01  0.2427E+02
   3.530  0.6173E+01  0.2434E+02
   3.540  0.7987E+01  0.2442E+02
   3.550  0.6652E+01  0.2448E+02
   3.560  0.5758E+01  0.2454E+02
   3.570  0.6222E+01  0.2460E+02
   3.580  0.4781E+01  0.2465E+02
   3.590  0.1669E+01  0.2467E+02
   3.600  0.8216E+00  0.2467E+02
   3.610  0.2451E+01  0.2470E+02
   3.620  0.3093E+01  0.2473E+02
   3.630  0.3154E+01  0.2476E+02
   3.640  0.1571E+01  0.2478E+02
   3.650  0.1329E+01  0.2479E+02
   3.660  0.3608E+01  0.2483E+02
   3.670  0.3564E+01  0.2486E+02
   3.680  0.1578E+01  0.2488E+02
   3.690  0.9378E+00  0.2489E+02
   3.700  0.1972E+01  0.2491E+02
   3.710  0.3282E+01  0.2494E+02
   3.720  0.2659E+01  0.2497E+02
   3.730  0.2612E+01  0.2499E+02
   3.740  0.2579E+01  0.2502E+02
   3.750  0.1531E+01  0.2503E+02
   3.760  0.1735E+00  0.2504E+02
   3.770 -0.2286E+00  0.2503E+02
   3.780 -0.4370E-01  0.2503E+02
   3.790  0.2793E+00  0.2504E+02
   3.800  0.1632E+01  0.2505E+02
   3.810  0.3379E+01  0.2509E+02
   3.820  0.3577E+01  0.2512E+02
   3.830  0.2975E+01  0.2515E+02
   3.840  0.2044E+01  0.2517E+02
   3.850  0.1505E+01  0.2519E+02
   3.860  0.1392E+01  0.2520E+02
   3.870  0.1847E+01  0.2522E+02
   3.880  0.1805E+01  0.2524E+02
   3.890  0.1602E+01  0.2525E+02
   3.900  0.1620E+01  0.2527E+02
   3.910  0.7931E+00  0.2528E+02
   3.920  0.3261E+00  0.2528E+02
   3.930  0.1703E+01  0.2530E+02
   3.940  0.2943E+01  0.2533E+02
   3.950  0.1963E+01  0.2535E+02
   3.960  0.1049E+01  0.2536E+02
   3.970  0.1936E+01  0.2538E+02
   3.980  0.4139E+01  0.2542E+02
   3.990  0.5438E+01  0.2547E+02
   4.000  0.2862E+01  0.2550E+02
   4.010  0.3053E+00  0.2550E+02
   4.020  0.1503E+01  0.2552E+02
   4.030  0.2814E+01  0.2555E+02
   4.040  0.3718E+01  0.2558E+02
   4.050  0.4981E+01  0.2563E+02
   4.060  0.3288E+01  0.2567E+02
   4.070  0.2424E+01  0.2569E+02
   4.080  0.2508E+01  0.2572E+02
   4.090  0.3306E+01  0.2575E+02
   4.100  0.1737E+01  0.2577E+02
   4.110  0.1063E+01  0.2578E+02
   4.120  0.2247E+01  0.2580E+02
   4.130  0.1340E+01  0.2581E+02
   4.140  0.1895E+01  0.2583E+02
   4.150  0.2052E+01  0.2585E+02
   4.160  0.1934E+01  0.2587E+02
   4.170  0.3919E+01  0.2591E+02
   4.180  0.4554E+01  0.2596E+02
   4.190  0.3759E+01  0.2599E+02
   4.200  0.1179E+01  0.2601E+02
   4.210 -0.2187E+00  0.2600E+02
   4.220  0.6966E+00  0.2601E+02
   4.230  0.1219E+01  0.2602E+02
   4.240  0.1207E+01  0.2604E+02
   4.250  0.3214E+01  0.2607E+02
   4.260  0.4335E+01  0.2611E+02
   4.270  0.3495E+01  0.2615E+02
   4.280  0.4049E+01  0.2619E+02
   4.290  0.3977E+01  0.2623E+02
   4.300  0.2607E+01  0.2625E+02
   4.310  0.2581E+01  0.2628E+02
   4.320  0.2749E+01  0.2631E+02
   4.330  0.2335E+01  0.2633E+02
   4.340  0.3344E+01  0.2636E+02
   4.350  0.6220E+01  0.2642E+02
   4.360  0.6890E+01  0.2649E+02
   4.370  0.5218E+01  0.2655E+02
   4.380  0.4008E+01  0.2659E+02
   4.390  0.2479E+01  0.2661E+02
   4.400  0.1407E+01  0.2662E+02
   4.410  0.1738E+01  0.2664E+02
   4.420  0.3131E+01  0.2667E+02
   4.430  0.4727E+01  0.2672E+02
   4.440  0.5343E+01  0.2677E+02
   4.450  0.3038E+01  0.2680E+02
   4.460  0.2369E+01  0.2683E+02
   4.470  0.3162E+01  0.2686E+02
   4.480  0.4109E+01  0.2690E+02
   4.490  0.6796E+01  0.2697E+02
   4.500  0.9187E+01  0.2706E+02
   4.510  0.5072E+01  0.2711E+02
   4.520 -0.3457E+00  0.2711E+02
   4.530 -0.6511E-01  0.2711E+02
   4.540  0.1804E+01  0.2713E+02
   4.550  0.2953E+01  0.2715E+02
   4.560  0.4419E+01  0.2720E+02
   4.570  0.4723E+01  0.2725E+02
   4.580  0.2120E+01  0.2727E+02
   4.590  0.2303E+01  0.2729E+02
   4.600  0.3836E+01  0.2733E+02
   4.610  0.1793E+01  0.2735E+02
   4.620  0.6237E+00  0.2735E+02
   4.630  0.1835E+01  0.2737E+02
   4.640  0.1775E+01  0.2739E+02
   4.650  0.1426E+01  0.2740E+02
   4.660  0.2651E+01  0.2743E+02
   4.670  0.3997E+01  0.2747E+02
   4.680  0.7273E+01  0.2754E+02
   4.690  0.1069E+02  0.2765E+02
   4.700  0.9602E+01  0.2775E+02
   4.710  0.3679E+01  0.2778E+02
   4.720  0.6666E+00  0.2779E+02
   4.730  0.4317E+00  0.2779E+02
   4.740  0.1145E+01  0.2780E+02
   4.750  0.1539E+01  0.2782E+02
   4.760  0.2927E+01  0.2785E+02
   4.770  0.2217E+01  0.2787E+02
   4.780  0.7368E-02  0.2787E+02
   4.790 -0.2536E+00  0.2787E+02
   4.800  0.4735E+00  0.2787E+02
   4.810  0.2042E+01  0.2789E+02
   4.820  0.2474E+01  0.2792E+02
   4.830  0.1361E+01  0.2793E+02
   4.840  0.1011E+01  0.2794E+02
   4.850  0.1083E+01  0.2795E+02
   4.860  0.6844E+00  0.2796E+02
   4.870  0.9114E+00  0.2797E+02
   4.880  0.1901E+01  0.2799E+02
   4.890  0.1310E+01  0.2800E+02
   4.900  0.5963E-01  0.2800E+02
   4.910 -0.1773E+00  0.2800E+02
   4.920 -0.5249E-02  0.2800E+02
   4.930  0.4383E+00  0.2800E+02
   4.940  0.2198E+01  0.2803E+02
   4.950  0.3555E+01  0.2806E+02
   4.960  0.1942E+01  0.2808E+02
   4.970  0.7674E+00  0.2809E+02
   4.980  0.5366E-01  0.2809E+02
   4.990 -0.1591E+00  0.2809E+02
   5.000 -0.3794E-03  0.2809E+02
   5.010  0.4108E+00  0.2809E+02
   5.020  0.1700E+01  0.2811E+02
   5.030  0.2377E+01  0.2813E+02
   5.040  0.2421E+01  0.2816E+02
   5.050  0.4879E+01  0.2821E+02
   5.060  0.4731E+01  0.2825E+02
   5.070  0.2352E+01  0.2828E+02
   5.080  0.2507E+01  0.2830E+02
   5.090  0.2735E+01  0.2833E+02
   5.100  0.1378E+01  0.2834E+02
   5.110  0.1730E+01  0.2836E+02
   5.120  0.1705E+01  0.2838E+02
   5.130  0.1218E+01  0.2839E+02
   5.140  0.2199E+01  0.2841E+02
   5.150  0.1202E+01  0.2842E+02
   5.160  0.7821E+00  0.2843E+02
   5.170  0.1837E+01  0.2845E+02
   5.180  0.1390E+01  0.2846E+02
   5.190  0.9161E+00  0.2847E+02
   5.200  0.2787E+01  0.2850E+02
   5.210  0.3146E+01  0.2853E+02
   5.220  0.1807E+01  0.2855E+02
   5.230  0.2092E+01  0.2857E+02
   5.240  0.1114E+01  0.2858E+02
   5.250  0.1141E+01  0.2859E+02
   5.260  0.1402E+01  0.2861E+02
   5.270  0.1242E+01  0.2862E+02
   5.280  0.1211E+01  0.2863E+02
   5.290  0.1617E+01  0.2865E+02
   5.300  0.2593E+01  0.2867E+02
   5.310  0.4370E+01  0.2872E+02
   5.320  0.6629E+01  0.2878E+02
   5.330  0.4690E+01  0.2883E+02
   5.340  0.3507E+01  0.2887E+02
   5.350  0.6350E+01  0.2893E+02
   5.360  0.4480E+01  0.2897E+02
   5.370  0.4016E+01  0.2901E+02
   5.380  0.4386E+01  0.2906E+02
   5.390  0.2159E+01  0.2908E+02
   5.400  0.1826E+01  0.2910E+02
   5.410  0.4279E+01  0.2914E+02
   5.420  0.4043E+01  0.2918E+02
   5.430  0.1351E+01  0.2920E+02
   5.440  0.1484E+01  0.2921E+02
   5.450  0.2728E+01  0.2924E+02
   5.460  0.3887E+01  0.2928E+02
   5.470  0.5801E+01  0.2933E+02
   5.480  0.4271E+01  0.2938E+02
   5.490  0.2840E+01  0.2941E+02
   5.500  0.2329E+01  0.2943E+02
   5.510  0.1806E+01  0.2945E+02
   5.520  0.2437E+01  0.2947E+02
   5.530  0.2680E+01  0.2950E+02
   5.540  0.3551E+01  0.2953E+02
   5.550  0.3104E+01  0.2956E+02
   5.560  0.1295E+01  0.2958E+02
   5.570  0.1486E+01  0.2959E+02
   5.580  0.1495E+01  0.2961E+02
   5.590  0.1732E+01  0.2962E+02
   5.600  0.4682E+01  0.2967E+02
   5.610  0.5955E+01  0.2973E+02
   5.620  0.2047E+01  0.2975E+02
   5.630  0.1083E+01  0.2976E+02
   5.640  0.2557E+01  0.2979E+02
   5.650  0.2577E+01  0.2981E+02
   5.660  0.1803E+01  0.2983E+02
   5.670  0.1304E+01  0.2984E+02
   5.680  0.1009E+01  0.2985E+02
   5.690  0.1684E+01  0.2987E+02
   5.700  0.2606E+01  0.2990E+02
   5.710  0.2892E+01  0.2993E+02
   5.720  0.2851E+01  0.2996E+02
   5.730  0.3776E+01  0.2999E+02
   5.740  0.4803E+01  0.3004E+02
   5.750  0.4620E+01  0.3009E+02
   5.760  0.4470E+01  0.3013E+02
   5.770  0.3324E+01  0.3017E+02
   5.780  0.2796E+01  0.3019E+02
   5.790  0.3264E+01  0.3023E+02
   5.800  0.2842E+01  0.3025E+02
   5.810  0.2296E+01  0.3028E+02
   5.820  0.1760E+01  0.3029E+02
   5.830  0.1244E+01  0.3031E+02
   5.840  0.1325E+01  0.3032E+02
   5.850  0.2503E+01  0.3035E+02
   5.860  0.3478E+01  0.3038E+02
   5.870  0.3962E+01  0.3042E+02
   5.880  0.3634E+01  0.3046E+02
   5.890  0.2110E+01  0.3048E+02
   5.900  0.2880E+01  0.3051E+02
   5.910  0.2524E+01  0.3053E+02
   5.920  0.2426E+00  0.3053E+02
   5.930  0.1441E+01  0.3055E+02
   5.940  0.5382E+01  0.3060E+02
   5.950  0.7080E+01  0.3067E+02
   5.960  0.6403E+01  0.3074E+02
   5.970  0.5195E+01  0.3079E+02
   5.980  0.3002E+01  0.3082E+02
   5.990  0.1886E+01  0.3084E+02
   6.000  0.1453E+01  0.3085E+02
   6.010  0.1531E+01  0.3087E+02
   6.020  0.3202E+01  0.3090E+02
   6.030  0.6265E+01  0.3096E+02
   6.040  0.7046E+01  0.3103E+02
   6.050  0.4473E+01  0.3108E+02
   6.060  0.1154E+01  0.3109E+02
   6.070  0.2000E+01  0.3111E+02
   6.080  0.5535E+01  0.3116E+02
   6.090  0.5056E+01  0.3121E+02
   6.100  0.3185E+01  0.3125E+02
   6.110  0.3613E+01  0.3128E+02
   6.120  0.4876E+01  0.3133E+02
   6.130  0.5412E+01  0.3139E+02
   6.140  0.3769E+01  0.3142E+02
   6.150  0.2230E+01  0.3145E+02
   6.160  0.2963E+01  0.3148E+02
   6.170  0.5518E+01  0.3153E+02
   6.180  0.3914E+01  0.3157E+02
   6.190  0.1273E+01  0.3158E+02
   6.200  0.3488E+01  0.3162E+02
   6.210  0.4770E+01  0.3166E+02
   6.220  0.4825E+01  0.3171E+02
   6.230  0.4101E+01  0.3175E+02
   6.240  0.2237E+01  0.3178E+02
   6.250  0.3952E+01  0.3182E+02
   6.260  0.6315E+01  0.3188E+02
   6.270  0.4383E+01  0.3192E+02
   6.280  0.3927E+01  0.3196E+02
   6.290  0.4077E+01  0.3200E+02
   6.300  0.2563E+01  0.3203E+02
   6.310  0.4570E+01  0.3207E+02
   6.320  0.4981E+01  0.3212E+02
   6.330  0.1659E+01  0.3214E+02
   6.340  0.4193E+00  0.3214E+02
   6.350  0.2278E+01  0.3217E+02
   6.360  0.3679E+01  0.3220E+02
   6.370  0.2831E+01  0.3223E+02
   6.380  0.1330E+01  0.3225E+02
   6.390  0.1904E+01  0.3227E+02
   6.400  0.4196E+01  0.3231E+02
   6.410  0.2843E+01  0.3234E+02
   6.420  0.4169E+00  0.3234E+02
   6.430  0.1693E+01  0.3236E+02
   6.440  0.2538E+01  0.3238E+02
   6.450  0.1800E+01  0.3240E+02
   6.460  0.1518E+01  0.3242E+02
   6.470  0.8054E+00  0.3242E+02
   6.480  0.1317E+01  0.3244E+02
   6.490  0.2377E+01  0.3246E+02
   6.500  0.1622E+01  0.3248E+02
   6.510  0.2601E+01  0.3250E+02
   6.520  0.3371E+01  0.3254E+02
   6.530  0.2369E+01  0.3256E+02
   6.540  0.2088E+01  0.3258E+02
   6.550  0.1445E+01  0.3260E+02
   6.560  0.2257E+00  0.3260E+02
   6.570  0.5165E+00  0.3260E+02
   6.580  0.1190E+01  0.3261E+02
   6.590  0.7480E+00  0.3262E+02
   6.600  0.1559E+01  0.3264E+02
   6.610  0.3379E+01  0.3267E+02
   6.620  0.4627E+01  0.3272E+02
   6.630  0.4154E+01  0.3276E+02
   6.640  0.1562E+01  0.3277E+02
   6.650 -0.8739E-01  0.3277E+02
   6.660  0.6123E+00  0.3278E+02
   6.670  0.1665E+01  0.3280E+02
   6.680  0.1622E+01  0.3281E+02
   6.690  0.1620E+01  0.3283E+02
   6.700  0.2307E+01  0.3285E+02
   6.710  0.1617E+01  0.3287E+02
   6.720  0.2421E+01  0.3289E+02
   6.730  0.3168E+01  0.3292E+02
   6.740  0.1162E+01  0.3294E+02
   6.750  0.2240E+01  0.3296E+02
   6.760  0.4354E+01  0.3300E+02
   6.770  0.3539E+01  0.3304E+02
   6.780  0.2449E+01  0.3306E+02
   6.790  0.2087E+01  0.3308E+02
   6.800  0.2509E+01  0.3311E+02
   6.810  0.3269E+01  0.3314E+02
   6.820  0.8385E+00  0.3315E+02
   6.830 -0.4460E+00  0.3314E+02
   6.840 -0.1209E+00  0.3314E+02
   6.850  0.1211E+00  0.3314E+02
   6.860  0.7431E+00  0.3315E+02
   6.870  0.1263E+01  0.3316E+02
   6.880  0.1076E+01  0.3318E+02
   6.890  0.3013E+01  0.3321E+02
   6.900  0.5098E+01  0.3326E+02
   6.910  0.2611E+01  0.3328E+02
   6.920 -0.2691E+00  0.3328E+02
   6.930  0.9430E+00  0.3329E+02
   6.940  0.6597E+01  0.3335E+02
   6.950  0.1109E+02  0.3347E+02
   6.960  0.6530E+01  0.3353E+02
   6.970  0.3180E+01  0.3356E+02
   6.980  0.2440E+01  0.3359E+02
   6.990  0.2472E+01  0.3361E+02
   7.000  0.5707E+01  0.3367E+02
   7.010  0.4997E+01  0.3372E+02
   7.020  0.1799E+01  0.3374E+02
   7.030  0.3507E+01  0.3377E+02
   7.040  0.5615E+01  0.3383E+02
   7.050  0.6723E+01  0.3390E+02
   7.060  0.3863E+01  0.3393E+02
   7.070  0.1596E+01  0.3395E+02
   7.080  0.1986E+01  0.3397E+02
   7.090  0.3971E+01  0.3401E+02
   7.100  0.5928E+01  0.3407E+02
   7.110  0.4645E+01  0.3412E+02
   7.120  0.3965E+01  0.3416E+02
   7.130  0.3296E+01  0.3419E+02
   7.140  0.2324E+01  0.3421E+02
   7.150  0.1996E+01  0.3423E+02
   7.160  0.1440E+01  0.3425E+02
   7.170  0.1542E+01  0.3426E+02
   7.180  0.3445E+01  0.3430E+02
   7.190  0.4569E+01  0.3434E+02
   7.200  0.2202E+01  0.3436E+02
   7.210  0.7009E+00  0.3437E+02
   7.220  0.5903E+00  0.3438E+02
   7.230  0.4430E+00  0.3438E+02
   7.240  0.2216E+01  0.3440E+02
   7.250  0.4152E+01  0.3444E+02
   7.260  0.4171E+01  0.3449E+02
   7.270  0.2385E+01  0.3451E+02
   7.280  0.6506E+00  0.3452E+02
   7.290  0.1078E+01  0.3453E+02
   7.300  0.1683E+01  0.3454E+02
   7.310  0.2567E+01  0.3457E+02
   7.320  0.3419E+01  0.3460E+02
   7.330  0.4485E+01  0.3465E+02
   7.340  0.3327E+01  0.3468E+02
   7.350  0.5007E+00  0.3469E+02
   7.360 -0.2313E+00  0.3468E+02
   7.370  0.1030E+01  0.3469E+02
   7.380  0.2526E+01  0.3472E+02
   7.390  0.2567E+01  0.3475E+02
   7.400  0.2495E+01  0.3477E+02
   7.410  0.2348E+01  0.3479E+02
   7.420  0.2847E+01  0.3482E+02
   7.430  0.1643E+01  0.3484E+02
   7.440  0.6170E+00  0.3485E+02
   7.450  0.2036E+01  0.3487E+02
   7.460  0.2273E+01  0.3489E+02
   7.470  0.1455E+01  0.3490E+02
   7.480  0.1484E+01  0.3492E+02
   7.490  0.9329E+00  0.3493E+02
   7.500  0.1182E+01  0.3494E+02
   7.510  0.3073E+01  0.3497E+02
   7.520  0.2999E+01  0.3500E+02
   7.530  0.1800E+01  0.3502E+02
   7.540  0.1585E+01  0.3503E+02
   7.550  0.1700E+01  0.3505E+02
   7.560  0.9492E+00  0.3506E+02
   7.570  0.1214E+01  0.3507E+02
   7.580  0.2332E+01  0.3510E+02
   7.590  0.1231E+01  0.3511E+02
   7.600  0.1936E+01  0.3513E+02
   7.610  0.3775E+01  0.3516E+02
   7.620  0.2547E+01  0.3519E+02
   7.630  0.1190E+01  0.3520E+02
   7.640  0.2544E+01  0.3523E+02
   7.650  0.2613E+01  0.3525E+02
   7.660  0.3121E+00  0.3526E+02
   7.670 -0.3427E+00  0.3525E+02
   7.680 -0.7592E-01  0.3525E+02
   7.690 -0.2770E-02  0.3525E+02
   7.700  0.4772E-01  0.3525E+02
   7.710  0.5596E+00  0.3526E+02
   7.720  0.2030E+01  0.3528E+02
   7.730  0.1960E+01  0.3530E+02
   7.740  0.8523E-01  0.3530E+02
   7.750 -0.2473E+00  0.3530E+02
   7.760 -0.4005E-01  0.3530E+02
   7.770 -0.1640E-02  0.3530E+02
   7.780 -0.1997E-04  0.3530E+02
   7.790  0.9101E-04  0.3530E+02
   7.800  0.5621E-02  0.3530E+02
   7.810  0.1124E+00  0.3530E+02
   7.820  0.7239E+00  0.3531E+02
   7.830  0.1657E+01  0.3532E+02
   7.840  0.2242E+01  0.3534E+02
   7.850  0.1985E+01  0.3536E+02
   7.860  0.3351E+00  0.3537E+02
   7.870  0.7733E+00  0.3538E+02
   7.880  0.2497E+01  0.3540E+02
   7.890  0.2312E+01  0.3542E+02
   7.900  0.2667E+01  0.3545E+02
   7.910  0.2921E+01  0.3548E+02
   7.920  0.2810E+01  0.3551E+02
   7.930  0.3476E+01  0.3554E+02
   7.940  0.2268E+01  0.3556E+02
   7.950  0.1091E+01  0.3558E+02
   7.960  0.1869E+01  0.3559E+02
   7.970  0.1308E+01  0.3561E+02
   7.980 -0.7820E-01  0.3561E+02
   7.990 -0.1259E+00  0.3561E+02
   8.000  0.5552E+00  0.3561E+02
   8.010  0.2033E+01  0.3563E+02
   8.020  0.1926E+01  0.3565E+02
   8.030  0.8676E-01  0.3565E+02
   8.040 -0.2355E+00  0.3565E+02
   8.050  0.9469E-01  0.3565E+02
   8.060  0.8030E+00  0.3566E+02
   8.070  0.1648E+01  0.3567E+02
   8.080  0.1502E+01  0.3569E+02
   8.090  0.7402E+00  0.3570E+02
   8.100  0.7946E+00  0.3570E+02
   8.110  0.1586E+01  0.3572E+02
   8.120  0.1580E+01  0.3574E+02
   8.130  0.1363E+01  0.3575E+02
   8.140  0.9482E+00  0.3576E+02
   8.150  0.1985E+00  0.3576E+02
   8.160  0.8555E+00  0.3577E+02
   8.170  0.2719E+01  0.3580E+02
   8.180  0.2697E+01  0.3582E+02
   8.190  0.6595E+00  0.3583E+02
   8.200  0.1011E+01  0.3584E+02
   8.210  0.2334E+01  0.3586E+02
   8.220  0.8932E+00  0.3587E+02
   8.230  0.5258E+00  0.3588E+02
   8.240  0.2222E+01  0.3590E+02
   8.250  0.1772E+01  0.3592E+02
   8.260  0.1222E+01  0.3593E+02
   8.270  0.2993E+01  0.3596E+02
   8.280  0.3277E+01  0.3599E+02
   8.290  0.1193E+01  0.3601E+02
   8.300 -0.3123E+00  0.3600E+02
   8.310 -0.1857E+00  0.3600E+02
   8.320 -0.1858E-01  0.3600E+02
   8.330 -0.5319E-03  0.3600E+02
   8.340 -0.4789E-05  0.3600E+02
   8.350 -0.1404E-07  0.3600E+02
   8.360 -0.1361E-10  0.3600E+02
   8.370 -0.4404E-14  0.3600E+02
   8.380 -0.4774E-18  0.3600E+02
   8.390 -0.1739E-22  0.3600E+02
   8.400 -0.2133E-27  0.3600E+02
   8.410 -0.8818E-33  0.3600E+02
   8.420 -0.1230E-38  0.3600E+02
   8.430 -0.5795E-45  0.3600E+02
   8.440 -0.9223E-52  0.3600E+02
   8.450 -0.4962E-59  0.3600E+02
   8.460 -0.9028E-67  0.3600E+02
   8.470 -0.5557E-75  0.3600E+02
   8.480 -0.1167E-79  0.3600E+02
   8.490 -0.1168E-79  0.3600E+02
   8.500 -0.1168E-79  0.3600E+02
   8.510 -0.1169E-79  0.3600E+02
   8.520 -0.1169E-79  0.3600E+02
   8.530 -0.1170E-79  0.3600E+02
   8.540 -0.1170E-79  0.3600E+02
   8.550 -0.1171E-79  0.3600E+02
   8.560 -0.1171E-79  0.3600E+02
   8.570 -0.1172E-79  0.3600E+02
   8.580 -0.1172E-79  0.3600E+02
   8.590 -0.1173E-79  0.3600E+02
   8.600 -0.1173E-79  0.3600E+02
   8.610 -0.1174E-79  0.3600E+02
   8.620 -0.1174E-79  0.3600E+02
   8.630 -0.1175E-79  0.3600E+02
   8.640 -0.1175E-79  0.3600E+02
   8.650 -0.1176E-79  0.3600E+02
   8.660 -0.1176E-79  0.3600E+02
   8.670 -0.1177E-79  0.3600E+02
   8.680 -0.1177E-79  0.3600E+02
   8.690 -0.1178E-79  0.3600E+02
   8.700 -0.1178E-79  0.3600E+02
   8.710 -0.1179E-79  0.3600E+02
   8.720 -0.1179E-79  0.3600E+02
   8.730 -0.1180E-79  0.3600E+02
   8.740 -0.1180E-79  0.3600E+02
   8.750 -0.1181E-79  0.3600E+02
   8.760 -0.1181E-79  0.3600E+02
   8.770 -0.1182E-79  0.3600E+02
   8.780 -0.1182E-79  0.3600E+02
   8.790 -0.1183E-79  0.3600E+02
   8.800 -0.1183E-79  0.3600E+02
   8.810 -0.1184E-79  0.3600E+02
   8.820 -0.1184E-79  0.3600E+02
   8.830 -0.1185E-79  0.3600E+02
   8.840 -0.1185E-79  0.3600E+02
   8.850 -0.1186E-79  0.3600E+02
   8.860 -0.1186E-79  0.3600E+02
   8.870 -0.1187E-79  0.3600E+02
   8.880 -0.1187E-79  0.3600E+02
   8.890 -0.1188E-79  0.3600E+02
   8.900 -0.1188E-79  0.3600E+02
   8.910 -0.1189E-79  0.3600E+02
   8.920 -0.1189E-79  0.3600E+02
   8.930 -0.1190E-79  0.3600E+02
   8.940 -0.1190E-79  0.3600E+02
   8.950 -0.1191E-79  0.3600E+02
   8.960 -0.1191E-79  0.3600E+02
   8.970 -0.1192E-79  0.3600E+02
   8.980 -0.1192E-79  0.3600E+02
   8.990 -0.1193E-79  0.3600E+02
   9.000 -0.1193E-79  0.3600E+02
   9.010 -0.1194E-79  0.3600E+02
   9.020 -0.1194E-79  0.3600E+02
   9.030 -0.1195E-79  0.3600E+02
   9.040 -0.1195E-79  0.3600E+02
   9.050 -0.1196E-79  0.3600E+02
   9.060 -0.1196E-79  0.3600E+02
   9.070 -0.1197E-79  0.3600E+02
   9.080 -0.1197E-79  0.3600E+02
   9.090 -0.1198E-79  0.3600E+02
   9.100 -0.1198E-79  0.3600E+02
   9.110 -0.1199E-79  0.3600E+02
   9.120 -0.1199E-79  0.3600E+02
   9.130 -0.1200E-79  0.3600E+02
   9.140 -0.1200E-79  0.3600E+02
   9.150 -0.1201E-79  0.3600E+02
   9.160 -0.1201E-79  0.3600E+02
   9.170 -0.1202E-79  0.3600E+02
   9.180 -0.1202E-79  0.3600E+02
   9.190 -0.1203E-79  0.3600E+02
   9.200 -0.1203E-79  0.3600E+02
   9.210 -0.1204E-79  0.3600E+02
   9.220 -0.1204E-79  0.3600E+02
   9.230 -0.1205E-79  0.3600E+02
   9.240 -0.1205E-79  0.3600E+02
   9.250 -0.1206E-79  0.3600E+02
   9.260 -0.1206E-79  0.3600E+02
   9.270 -0.1207E-79  0.3600E+02
   9.280 -0.1207E-79  0.3600E+02
   9.290 -0.1208E-79  0.3600E+02
   9.300 -0.1208E-79  0.3600E+02
   9.310 -0.1209E-79  0.3600E+02
   9.320 -0.1209E-79  0.3600E+02
   9.330 -0.1210E-79  0.3600E+02
   9.340 -0.1210E-79  0.3600E+02
   9.350 -0.1211E-79  0.3600E+02
   9.360 -0.1211E-79  0.3600E+02
   9.370 -0.1212E-79  0.3600E+02
   9.380 -0.1212E-79  0.3600E+02
   9.390 -0.1213E-79  0.3600E+02
   9.400 -0.1213E-79  0.3600E+02
   9.410 -0.1214E-79  0.3600E+02
   9.420 -0.1214E-79  0.3600E+02
   9.430 -0.1215E-79  0.3600E+02
   9.440 -0.1215E-79  0.3600E+02
   9.450 -0.1216E-79  0.3600E+02
   9.460 -0.1216E-79  0.3600E+02
   9.470 -0.1217E-79  0.3600E+02
   9.480 -0.1217E-79  0.3600E+02
   9.490 -0.1218E-79  0.3600E+02
   9.500 -0.1218E-79  0.3600E+02
   9.510 -0.1219E-79  0.3600E+02
   9.520 -0.1219E-79  0.3600E+02
   9.530 -0.1220E-79  0.3600E+02
   9.540 -0.1220E-79  0.3600E+02
   9.550 -0.1221E-79  0.3600E+02
   9.560 -0.1221E-79  0.3600E+02
   9.570 -0.1222E-79  0.3600E+02
   9.580 -0.1222E-79  0.3600E+02
   9.590 -0.1223E-79  0.3600E+02
   9.600 -0.1223E-79  0.3600E+02
   9.610 -0.1224E-79  0.3600E+02
   9.620 -0.1224E-79  0.3600E+02
   9.630 -0.1225E-79  0.3600E+02
   9.640 -0.1225E-79  0.3600E+02
   9.650 -0.1226E-79  0.3600E+02
   9.660 -0.1226E-79  0.3600E+02
   9.670 -0.1227E-79  0.3600E+02
   9.680 -0.1227E-79  0.3600E+02
   9.690 -0.1228E-79  0.3600E+02
   9.700 -0.1228E-79  0.3600E+02
   9.710 -0.1229E-79  0.3600E+02
   9.720 -0.1230E-79  0.3600E+02
   9.730 -0.1230E-79  0.3600E+02
   9.740 -0.1231E-79  0.3600E+02
   9.750 -0.1231E-79  0.3600E+02
   9.760 -0.1232E-79  0.3600E+02
   9.770 -0.1232E-79  0.3600E+02
   9.780 -0.1233E-79  0.3600E+02
   9.790 -0.1233E-79  0.3600E+02
   9.800 -0.1234E-79  0.3600E+02
   9.810 -0.1234E-79  0.3600E+02
   9.820 -0.1235E-79  0.3600E+02
   9.830 -0.1235E-79  0.3600E+02
   9.840 -0.1236E-79  0.3600E+02
   9.850 -0.1236E-79  0.3600E+02
   9.860 -0.1237E-79  0.3600E+02
   9.870 -0.1237E-79  0.3600E+02
   9.880 -0.1238E-79  0.3600E+02
   9.890 -0.1238E-79  0.3600E+02
   9.900 -0.1239E-79  0.3600E+02
   9.910 -0.1239E-79  0.3600E+02
   9.920 -0.1240E-79  0.3600E+02
   9.930 -0.1240E-79  0.3600E+02
   9.940 -0.1241E-79  0.3600E+02
   9.950 -0.1241E-79  0.3600E+02
   9.960 -0.1242E-79  0.3600E+02
   9.970 -0.1242E-79  0.3600E+02
   9.980 -0.1243E-79  0.3600E+02
   9.990 -0.1243E-79  0.3600E+02
  10.000 -0.1244E-79  0.3600E+02
  10.010 -0.1244E-79  0.3600E+02
  10.020 -0.1245E-79  0.3600E+02
  10.030 -0.1245E-79  0.3600E+02
  10.040 -0.1246E-79  0.3600E+02
  10.050 -0.1246E-79  0.3600E+02
  10.060 -0.1247E-79  0.3600E+02
  10.070 -0.1247E-79  0.3600E+02
  10.080 -0.1248E-79  0.3600E+02
  10.090 -0.1248E-79  0.3600E+02
  10.100 -0.1249E-79  0.3600E+02
  10.110 -0.1249E-79  0.3600E+02
  10.120 -0.1250E-79  0.3600E+02
  10.130 -0.1250E-79  0.3600E+02
  10.140 -0.1251E-79  0.3600E+02
  10.150 -0.1251E-79  0.3600E+02
  10.160 -0.1252E-79  0.3600E+02
  10.170 -0.1252E-79  0.3600E+02
  10.180 -0.1253E-79  0.3600E+02
  10.190 -0.1253E-79  0.3600E+02
  10.200 -0.1254E-79  0.3600E+02
  10.210 -0.1254E-79  0.3600E+02
  10.220 -0.1255E-79  0.3600E+02
  10.230 -0.1255E-79  0.3600E+02
  10.240 -0.1256E-79  0.3600E+02
  10.250 -0.1256E-79  0.3600E+02
  10.260 -0.1257E-79  0.3600E+02
  10.270 -0.1257E-79  0.3600E+02
  10.280 -0.1258E-79  0.3600E+02
  10.290 -0.1258E-79  0.3600E+02
  10.300 -0.1259E-79  0.3600E+02
  10.310 -0.1259E-79  0.3600E+02
  10.320 -0.1260E-79  0.3600E+02
  10.330 -0.1260E-79  0.3600E+02
  10.340 -0.1261E-79  0.3600E+02
  10.350 -0.1261E-79  0.3600E+02
  10.360 -0.1262E-79  0.3600E+02
  10.370 -0.1262E-79  0.3600E+02
  10.380 -0.1263E-79  0.3600E+02
  10.390 -0.1263E-79  0.3600E+02
  10.400 -0.1264E-79  0.3600E+02
  10.410 -0.1264E-79  0.3600E+02
  10.420 -0.1265E-79  0.3600E+02
  10.430 -0.1265E-79  0.3600E+02
  10.440 -0.1266E-79  0.3600E+02
  10.450 -0.1266E-79  0.3600E+02
  10.460 -0.1267E-79  0.3600E+02
  10.470 -0.1267E-79  0.3600E+02
  10.480 -0.1268E-79  0.3600E+02
  10.490 -0.1268E-79  0.3600E+02
  10.500 -0.1269E-79  0.3600E+02
  10.510 -0.1269E-79  0.3600E+02
  10.520 -0.1270E-79  0.3600E+02
  10.530 -0.1270E-79  0.3600E+02
  10.540 -0.1271E-79  0.3600E+02
  10.550 -0.1271E-79  0.3600E+02
  10.560 -0.1272E-79  0.3600E+02
  10.570 -0.1272E-79  0.3600E+02
  10.580 -0.1273E-79  0.3600E+02
  10.590 -0.1273E-79  0.3600E+02
  10.600 -0.1274E-79  0.3600E+02
  10.610 -0.1274E-79  0.3600E+02
  10.620 -0.1275E-79  0.3600E+02
  10.630 -0.1275E-79  0.3600E+02
  10.640 -0.1276E-79  0.3600E+02
  10.650 -0.1276E-79  0.3600E+02
  10.660 -0.1277E-79  0.3600E+02
  10.670 -0.1277E-79  0.3600E+02
  10.680 -0.1278E-79  0.3600E+02
  10.690 -0.1278E-79  0.3600E+02
  10.700 -0.1279E-79  0.3600E+02
  10.710 -0.1279E-79  0.3600E+02
  10.720 -0.1280E-79  0.3600E+02
  10.730 -0.1280E-79  0.3600E+02
  10.740 -0.1281E-79  0.3600E+02
  10.750 -0.1281E-79  0.3600E+02
  10.760 -0.1282E-79  0.3600E+02
  10.770 -0.1282E-79  0.3600E+02
  10.780 -0.1283E-79  0.3600E+02
  10.790 -0.1283E-79  0.3600E+02
  10.800 -0.1284E-79  0.3600E+02
  10.810 -0.1284E-79  0.3600E+02
  10.820 -0.1285E-79  0.3600E+02
  10.830 -0.1285E-79  0.3600E+02
  10.840 -0.1286E-79  0.3600E+02
  10.850 -0.1286E-79  0.3600E+02
  10.860 -0.1287E-79  0.3600E+02
  10.870 -0.1287E-79  0.3600E+02
  10.880 -0.1288E-79  0.3600E+02
  10.890 -0.1288E-79  0.3600E+02
  10.900 -0.1289E-79  0.3600E+02
  10.910 -0.1289E-79  0.3600E+02
  10.920 -0.1290E-79  0.3600E+02
  10.930 -0.1290E-79  0.3600E+02
  10.940 -0.1291E-79  0.3600E+02
  10.950 -0.1291E-79  0.3600E+02
  10.960 -0.1292E-79  0.3600E+02
  10.970 -0.1292E-79  0.3600E+02
  10.980 -0.1293E-79  0.3600E+02
  10.990 -0.1293E-79  0.3600E+02
  11.000 -0.1294E-79  0.3600E+02
  11.010 -0.1294E-79  0.3600E+02
  11.020 -0.1295E-79  0.3600E+02
  11.030 -0.1295E-79  0.3600E+02
  11.040 -0.1296E-79  0.3600E+02
  11.050 -0.1296E-79  0.3600E+02
  11.060 -0.1297E-79  0.3600E+02
  11.070 -0.1297E-79  0.3600E+02
  11.080 -0.1298E-79  0.3600E+02
  11.090 -0.1298E-79  0.3600E+02
  11.100 -0.1299E-79  0.3600E+02
  11.110 -0.1299E-79  0.3600E+02
  11.120 -0.1300E-79  0.3600E+02
  11.130 -0.1300E-79  0.3600E+02
  11.140 -0.1301E-79  0.3600E+02
  11.150 -0.1301E-79  0.3600E+02
  11.160 -0.1302E-79  0.3600E+02
  11.170 -0.1302E-79  0.3600E+02
  11.180 -0.1303E-79  0.3600E+02
  11.190 -0.1303E-79  0.3600E+02
  11.200 -0.1304E-79  0.3600E+02
  11.210 -0.1304E-79  0.3600E+02
  11.220 -0.1305E-79  0.3600E+02
  11.230 -0.1305E-79  0.3600E+02
  11.240 -0.1306E-79  0.3600E+02
  11.250 -0.1306E-79  0.3600E+02
  11.260 -0.1307E-79  0.3600E+02
  11.270 -0.1307E-79  0.3600E+02
  11.280 -0.1308E-79  0.3600E+02
  11.290 -0.1308E-79  0.3600E+02
  11.300 -0.1309E-79  0.3600E+02
  11.310 -0.1309E-79  0.3600E+02
  11.320 -0.1310E-79  0.3600E+02
  11.330 -0.1310E-79  0.3600E+02
  11.340 -0.1311E-79  0.3600E+02
  11.350 -0.1311E-79  0.3600E+02
  11.360 -0.1312E-79  0.3600E+02
  11.370 -0.1312E-79  0.3600E+02
  11.380 -0.1313E-79  0.3600E+02
  11.390 -0.1313E-79  0.3600E+02
  11.400 -0.1314E-79  0.3600E+02
  11.410 -0.1314E-79  0.3600E+02
  11.420 -0.1315E-79  0.3600E+02
  11.430 -0.1315E-79  0.3600E+02
  11.440 -0.1316E-79  0.3600E+02
  11.450 -0.1316E-79  0.3600E+02
  11.460 -0.1317E-79  0.3600E+02
  11.470 -0.1317E-79  0.3600E+02
  11.480 -0.1318E-79  0.3600E+02
  11.490 -0.1318E-79  0.3600E+02
  11.500 -0.1319E-79  0.3600E+02
  11.510 -0.1319E-79  0.3600E+02
  11.520 -0.1320E-79  0.3600E+02
  11.530 -0.1320E-79  0.3600E+02
  11.540 -0.1321E-79  0.3600E+02
  11.550 -0.1321E-79  0.3600E+02
  11.560 -0.1322E-79  0.3600E+02
  11.570 -0.1322E-79  0.3600E+02
  11.580 -0.1323E-79  0.3600E+02
  11.590 -0.1323E-79  0.3600E+02
  11.600 -0.1324E-79  0.3600E+02
  11.610 -0.1324E-79  0.3600E+02
  11.620 -0.1325E-79  0.3600E+02
  11.630 -0.1325E-79  0.3600E+02
  11.640 -0.1326E-79  0.3600E+02
  11.650 -0.1326E-79  0.3600E+02
  11.660 -0.1327E-79  0.3600E+02
  11.670 -0.1327E-79  0.3600E+02
  11.680 -0.1328E-79  0.3600E+02
  11.690 -0.1328E-79  0.3600E+02
  11.700 -0.1329E-79  0.3600E+02
  11.710 -0.1329E-79  0.3600E+02
  11.720 -0.1330E-79  0.3600E+02
  11.730 -0.1330E-79  0.3600E+02
  11.740 -0.1331E-79  0.3600E+02
  11.750 -0.1331E-79  0.3600E+02
  11.760 -0.1332E-79  0.3600E+02
  11.770 -0.1332E-79  0.3600E+02
  11.780 -0.1333E-79  0.3600E+02
  11.790 -0.1333E-79  0.3600E+02
  11.800 -0.1334E-79  0.3600E+02
  11.810 -0.1334E-79  0.3600E+02
  11.820 -0.1335E-79  0.3600E+02
  11.830 -0.1335E-79  0.3600E+02
  11.840 -0.1336E-79  0.3600E+02
  11.850 -0.1336E-79  0.3600E+02
  11.860 -0.1337E-79  0.3600E+02
  11.870 -0.1337E-79  0.3600E+02
  11.880 -0.1338E-79  0.3600E+02
  11.890 -0.1338E-79  0.3600E+02
  11.900 -0.1339E-79  0.3600E+02
  11.910 -0.1339E-79  0.3600E+02
  11.920 -0.1340E-79  0.3600E+02
  11.930 -0.1340E-79  0.3600E+02
  11.940 -0.1341E-79  0.3600E+02
  11.950 -0.1341E-79  0.3600E+02
  11.960 -0.1342E-79  0.3600E+02
  11.970 -0.1342E-79  0.3600E+02
  11.980 -0.1343E-79  0.3600E+02
  11.990 -0.1343E-79  0.3600E+02
  12.000 -0.1344E-79  0.3600E+02
  12.010 -0.1344E-79  0.3600E+02
  12.020 -0.1345E-79  0.3600E+02
  12.030 -0.1345E-79  0.3600E+02
  12.040 -0.1346E-79  0.3600E+02
  12.050 -0.1346E-79  0.3600E+02
  12.060 -0.1347E-79  0.3600E+02
  12.070 -0.1347E-79  0.3600E+02
  12.080 -0.1348E-79  0.3600E+02
  12.090 -0.1348E-79  0.3600E+02
  12.100 -0.1349E-79  0.3600E+02
  12.110 -0.1349E-79  0.3600E+02
  12.120 -0.1350E-79  0.3600E+02
  12.130 -0.1350E-79  0.3600E+02
  12.140 -0.1351E-79  0.3600E+02
  12.150 -0.1351E-79  0.3600E+02
  12.160 -0.1352E-79  0.3600E+02
  12.170 -0.1352E-79  0.3600E+02
  12.180 -0.1353E-79  0.3600E+02
  12.190 -0.1353E-79  0.3600E+02
  12.200 -0.1354E-79  0.3600E+02
  12.210 -0.1354E-79  0.3600E+02
  12.220 -0.1355E-79  0.3600E+02
  12.230 -0.1355E-79  0.3600E+02
  12.240 -0.1356E-79  0.3600E+02
  12.250 -0.1356E-79  0.3600E+02
  12.260 -0.1357E-79  0.3600E+02
  12.270 -0.1357E-79  0.3600E+02
  12.280 -0.1358E-79  0.3600E+02
  12.290 -0.1358E-79  0.3600E+02
  12.300 -0.1359E-79  0.3600E+02
  12.310 -0.1359E-79  0.3600E+02
  12.320 -0.1360E-79  0.3600E+02
  12.330 -0.1360E-79  0.3600E+02
  12.340 -0.1361E-79  0.3600E+02
  12.350 -0.1361E-79  0.3600E+02
  12.360 -0.1362E-79  0.3600E+02
  12.370 -0.1362E-79  0.3600E+02
  12.380 -0.1363E-79  0.3600E+02
  12.390 -0.1363E-79  0.3600E+02
  12.400 -0.1364E-79  0.3600E+02
  12.410 -0.1364E-79  0.3600E+02
  12.420 -0.1365E-79  0.3600E+02
  12.430 -0.1365E-79  0.3600E+02
  12.440 -0.1366E-79  0.3600E+02
  12.450 -0.1366E-79  0.3600E+02
  12.460 -0.1367E-79  0.3600E+02
  12.470 -0.1367E-79  0.3600E+02
  12.480 -0.1368E-79  0.3600E+02
  12.490 -0.1368E-79  0.3600E+02
  12.500 -0.1369E-79  0.3600E+02
  12.510 -0.1369E-79  0.3600E+02
  12.520 -0.1370E-79  0.3600E+02
  12.530 -0.1370E-79  0.3600E+02
  12.540 -0.1371E-79  0.3600E+02
  12.550 -0.1371E-79  0.3600E+02
  12.560 -0.1372E-79  0.3600E+02
  12.570 -0.1372E-79  0.3600E+02
  12.580 -0.1373E-79  0.3600E+02
  12.590 -0.1373E-79  0.3600E+02
  12.600 -0.1374E-79  0.3600E+02
  12.610 -0.1374E-79  0.3600E+02
  12.620 -0.1375E-79  0.3600E+02
  12.630 -0.1375E-79  0.3600E+02
  12.640 -0.1376E-79  0.3600E+02
  12.650 -0.1376E-79  0.3600E+02
  12.660 -0.1377E-79  0.3600E+02
  12.670 -0.1377E-79  0.3600E+02
  12.680 -0.1378E-79  0.3600E+02
  12.690 -0.1378E-79  0.3600E+02
  12.700 -0.1379E-79  0.3600E+02
  12.710 -0.1379E-79  0.3600E+02
  12.720 -0.1380E-79  0.3600E+02
  12.730 -0.1380E-79  0.3600E+02
  12.740 -0.1381E-79  0.3600E+02
  12.750 -0.1381E-79  0.3600E+02
  12.760 -0.1382E-79  0.3600E+02
  12.770 -0.1382E-79  0.3600E+02
  12.780 -0.1383E-79  0.3600E+02
  12.790 -0.1383E-79  0.3600E+02
  12.800 -0.1384E-79  0.3600E+02
  12.810 -0.1384E-79  0.3600E+02
  12.820 -0.1385E-79  0.3600E+02
  12.830 -0.1385E-79  0.3600E+02
  12.840 -0.1386E-79  0.3600E+02
  12.850 -0.1386E-79  0.3600E+02
  12.860 -0.1387E-79  0.3600E+02
  12.870 -0.1387E-79  0.3600E+02
  12.880 -0.1388E-79  0.3600E+02
  12.890 -0.1388E-79  0.3600E+02
  12.900 -0.1389E-79  0.3600E+02
  12.910 -0.1389E-79  0.3600E+02
  12.920 -0.1390E-79  0.3600E+02
  12.930 -0.1390E-79  0.3600E+02
  12.940 -0.1391E-79  0.3600E+02
  12.950 -0.1391E-79  0.3600E+02
  12.960 -0.1392E-79  0.3600E+02
  12.970 -0.1392E-79  0.3600E+02
  12.980 -0.1393E-79  0.3600E+02
  12.990 -0.1393E-79  0.3600E+02
  13.000 -0.1394E-79  0.3600E+02
  13.010 -0.1394E-79  0.3600E+02
  13.020 -0.1395E-79  0.3600E+02
  13.030 -0.1395E-79  0.3600E+02
  13.040 -0.1396E-79  0.3600E+02
  13.050 -0.1396E-79  0.3600E+02
  13.060 -0.1397E-79  0.3600E+02
  13.070 -0.1397E-79  0.3600E+02
  13.080 -0.1398E-79  0.3600E+02
  13.090 -0.1398E-79  0.3600E+02
  13.100 -0.1399E-79  0.3600E+02
  13.110 -0.1399E-79  0.3600E+02
  13.120 -0.1400E-79  0.3600E+02
  13.130 -0.1400E-79  0.3600E+02
  13.140 -0.1401E-79  0.3600E+02
  13.150 -0.1401E-79  0.3600E+02
  13.160 -0.1402E-79  0.3600E+02
  13.170 -0.1402E-79  0.3600E+02
  13.180 -0.1403E-79  0.3600E+02
  13.190 -0.1403E-79  0.3600E+02
  13.200 -0.1404E-79  0.3600E+02
  13.210 -0.1404E-79  0.3600E+02
  13.220 -0.1405E-79  0.3600E+02
  13.230 -0.1405E-79  0.3600E+02
  13.240 -0.1406E-79  0.3600E+02
  13.250 -0.1406E-79  0.3600E+02
  13.260 -0.1407E-79  0.3600E+02
  13.270 -0.1407E-79  0.3600E+02
  13.280 -0.1408E-79  0.3600E+02
  13.290 -0.1408E-79  0.3600E+02
  13.300 -0.1409E-79  0.3600E+02
  13.310 -0.1409E-79  0.3600E+02
  13.320 -0.1410E-79  0.3600E+02
  13.330 -0.1410E-79  0.3600E+02
  13.340 -0.1411E-79  0.3600E+02
  13.350 -0.1411E-79  0.3600E+02
  13.360 -0.1412E-79  0.3600E+02
  13.370 -0.1412E-79  0.3600E+02
  13.380 -0.1413E-79  0.3600E+02
  13.390 -0.1413E-79  0.3600E+02
  13.400 -0.1414E-79  0.3600E+02
  13.410 -0.1414E-79  0.3600E+02
  13.420 -0.1415E-79  0.3600E+02
  13.430 -0.1415E-79  0.3600E+02
  13.440 -0.1416E-79  0.3600E+02
  13.450 -0.1416E-79  0.3600E+02
  13.460 -0.1417E-79  0.3600E+02
  13.470 -0.1417E-79  0.3600E+02
  13.480 -0.1418E-79  0.3600E+02
  13.490 -0.1418E-79  0.3600E+02
  13.500 -0.1419E-79  0.3600E+02
  13.510 -0.1419E-79  0.3600E+02
  13.520 -0.1420E-79  0.3600E+02
  13.530 -0.1420E-79  0.3600E+02
  13.540 -0.1421E-79  0.3600E+02
  13.550 -0.1421E-79  0.3600E+02
  13.560 -0.1422E-79  0.3600E+02
  13.570 -0.1422E-79  0.3600E+02
  13.580 -0.1423E-79  0.3600E+02
  13.590 -0.1423E-79  0.3600E+02
  13.600 -0.1424E-79  0.3600E+02
  13.610 -0.1424E-79  0.3600E+02
  13.620 -0.1425E-79  0.3600E+02
  13.630 -0.1425E-79  0.3600E+02
  13.640 -0.1426E-79  0.3600E+02
  13.650 -0.1426E-79  0.3600E+02
  13.660 -0.1427E-79  0.3600E+02
  13.670 -0.1427E-79  0.3600E+02
  13.680 -0.1428E-79  0.3600E+02
  13.690 -0.1428E-79  0.3600E+02
  13.700 -0.1429E-79  0.3600E+02
  13.710 -0.1429E-79  0.3600E+02
  13.720 -0.1430E-79  0.3600E+02
  13.730 -0.1430E-79  0.3600E+02
  13.740 -0.1431E-79  0.3600E+02
  13.750 -0.1431E-79  0.3600E+02
  13.760 -0.1432E-79  0.3600E+02
  13.770 -0.1432E-79  0.3600E+02
  13.780 -0.1433E-79  0.3600E+02
  13.790 -0.1433E-79  0.3600E+02
  13.800 -0.1434E-79  0.3600E+02
  13.810 -0.1434E-79  0.3600E+02
  13.820 -0.1435E-79  0.3600E+02
  13.830 -0.1435E-79  0.3600E+02
  13.840 -0.1436E-79  0.3600E+02
  13.850 -0.1436E-79  0.3600E+02
  13.860 -0.1437E-79  0.3600E+02
  13.870 -0.1437E-79  0.3600E+02
  13.880 -0.1438E-79  0.3600E+02
  13.890 -0.1438E-79  0.3600E+02
  13.900 -0.1439E-79  0.3600E+02
  13.910 -0.1439E-79  0.3600E+02
  13.920 -0.1440E-79  0.3600E+02
  13.930 -0.1440E-79  0.3600E+02
  13.940 -0.1441E-79  0.3600E+02
  13.950 -0.1441E-79  0.3600E+02
  13.960 -0.1442E-79  0.3600E+02
  13.970 -0.1442E-79  0.3600E+02
  13.980 -0.1443E-79  0.3600E+02
  13.990 -0.1443E-79  0.3600E+02
  14.000 -0.1444E-79  0.3600E+02
  14.010 -0.1444E-79  0.3600E+02
  14.020 -0.1445E-79  0.3600E+02
  14.030 -0.1445E-79  0.3600E+02
  14.040 -0.1446E-79  0.3600E+02
  14.050 -0.1446E-79  0.3600E+02
  14.060 -0.1447E-79  0.3600E+02
  14.070 -0.1447E-79  0.3600E+02
  14.080 -0.1448E-79  0.3600E+02
  14.090 -0.1448E-79  0.3600E+02
  14.100 -0.1449E-79  0.3600E+02
  14.110 -0.1449E-79  0.3600E+02
  14.120 -0.1450E-79  0.3600E+02
  14.130 -0.1450E-79  0.3600E+02
  14.140 -0.1451E-79  0.3600E+02
  14.150 -0.1451E-79  0.3600E+02
  14.160 -0.1452E-79  0.3600E+02
  14.170 -0.1452E-79  0.3600E+02
  14.180 -0.1453E-79  0.3600E+02
  14.190 -0.1453E-79  0.3600E+02
  14.200 -0.1454E-79  0.3600E+02
  14.210 -0.1454E-79  0.3600E+02
  14.220 -0.1455E-79  0.3600E+02
  14.230 -0.1455E-79  0.3600E+02
  14.240 -0.1456E-79  0.3600E+02
  14.250 -0.1456E-79  0.3600E+02
  14.260 -0.1457E-79  0.3600E+02
  14.270 -0.1457E-79  0.3600E+02
  14.280 -0.1458E-79  0.3600E+02
  14.290 -0.1458E-79  0.3600E+02
  14.300 -0.1459E-79  0.3600E+02
  14.310 -0.1459E-79  0.3600E+02
  14.320 -0.1460E-79  0.3600E+02
  14.330 -0.1460E-79  0.3600E+02
  14.340 -0.1461E-79  0.3600E+02
  14.350 -0.1461E-79  0.3600E+02
  14.360 -0.1462E-79  0.3600E+02
  14.370 -0.1462E-79  0.3600E+02
  14.380 -0.1463E-79  0.3600E+02
  14.390 -0.1463E-79  0.3600E+02
  14.400 -0.1464E-79  0.3600E+02
  14.410 -0.1464E-79  0.3600E+02
  14.420 -0.1465E-79  0.3600E+02
  14.430 -0.1465E-79  0.3600E+02
  14.440 -0.1466E-79  0.3600E+02
  14.450 -0.1466E-79  0.3600E+02
  14.460 -0.1467E-79  0.3600E+02
  14.470 -0.1468E-79  0.3600E+02
  14.480 -0.1468E-79  0.3600E+02
  14.490 -0.1469E-79  0.3600E+02
  14.500 -0.1469E-79  0.3600E+02
  14.510 -0.1470E-79  0.3600E+02
  14.520 -0.1470E-79  0.3600E+02
  14.530 -0.1471E-79  0.3600E+02
  14.540 -0.1471E-79  0.3600E+02
  14.550 -0.1472E-79  0.3600E+02
  14.560 -0.1472E-79  0.3600E+02
  14.570 -0.1473E-79  0.3600E+02
  14.580 -0.1473E-79  0.3600E+02
  14.590 -0.1474E-79  0.3600E+02
  14.600 -0.1474E-79  0.3600E+02
  14.610 -0.1475E-79  0.3600E+02
  14.620 -0.1475E-79  0.3600E+02
  14.630 -0.1476E-79  0.3600E+02
  14.640 -0.1476E-79  0.3600E+02
  14.650 -0.1477E-79  0.3600E+02
  14.660 -0.1477E-79  0.3600E+02
  14.670 -0.1478E-79  0.3600E+02
  14.680 -0.1478E-79  0.3600E+02
  14.690 -0.1479E-79  0.3600E+02
  14.700 -0.1479E-79  0.3600E+02
  14.710 -0.1480E-79  0.3600E+02
  14.720 -0.1480E-79  0.3600E+02
  14.730 -0.1481E-79  0.3600E+02
  14.740 -0.1481E-79  0.3600E+02
  14.750 -0.1482E-79  0.3600E+02
  14.760 -0.1482E-79  0.3600E+02
  14.770 -0.1483E-79  0.3600E+02
  14.780 -0.1483E-79  0.3600E+02
  14.790 -0.1484E-79  0.3600E+02
  14.800 -0.1484E-79  0.3600E+02
  14.810 -0.1485E-79  0.3600E+02
  14.820 -0.1485E-79  0.3600E+02
  14.830 -0.1486E-79  0.3600E+02
  14.840 -0.1486E-79  0.3600E+02
  14.850 -0.1487E-79  0.3600E+02
  14.860 -0.1487E-79  0.3600E+02
  14.870 -0.1488E-79  0.3600E+02
  14.880 -0.1488E-79  0.3600E+02
  14.890 -0.1489E-79  0.3600E+02
  14.900 -0.1489E-79  0.3600E+02
  14.910 -0.1490E-79  0.3600E+02
  14.920 -0.1490E-79  0.3600E+02
  14.930 -0.1491E-79  0.3600E+02
  14.940 -0.1491E-79  0.3600E+02
  14.950 -0.1492E-79  0.3600E+02
  14.960 -0.1492E-79  0.3600E+02
  14.970 -0.1493E-79  0.3600E+02
  14.980 -0.1493E-79  0.3600E+02
  14.990 -0.1494E-79  0.3600E+02
  15.000 -0.1494E-79  0.3600E+02
  15.010 -0.1495E-79  0.3600E+02
  15.020 -0.1495E-79  0.3600E+02
  15.030 -0.1496E-79  0.3600E+02
  15.040 -0.1496E-79  0.3600E+02
  15.050 -0.1497E-79  0.3600E+02
  15.060 -0.1497E-79  0.3600E+02
  15.070 -0.1498E-79  0.3600E+02
  15.080 -0.1498E-79  0.3600E+02
  15.090 -0.1499E-79  0.3600E+02
  15.100 -0.1499E-79  0.3600E+02
  15.110 -0.1500E-79  0.3600E+02
  15.120 -0.1500E-79  0.3600E+02
  15.130 -0.1501E-79  0.3600E+02
  15.140 -0.1501E-79  0.3600E+02
  15.150 -0.1502E-79  0.3600E+02
  15.160 -0.1502E-79  0.3600E+02
  15.170 -0.1503E-79  0.3600E+02
  15.180 -0.1503E-79  0.3600E+02
  15.190 -0.1504E-79  0.3600E+02
  15.200 -0.1504E-79  0.3600E+02
  15.210 -0.1505E-79  0.3600E+02
  15.220 -0.1505E-79  0.3600E+02
  15.230 -0.1506E-79  0.3600E+02
  15.240 -0.1506E-79  0.3600E+02
  15.250 -0.1507E-79  0.3600E+02
  15.260 -0.1507E-79  0.3600E+02
  15.270 -0.1508E-79  0.3600E+02
  15.280 -0.1508E-79  0.3600E+02
  15.290 -0.1509E-79  0.3600E+02
  15.300 -0.1509E-79  0.3600E+02
  15.310 -0.1510E-79  0.3600E+02
  15.320 -0.1510E-79  0.3600E+02
  15.330 -0.1511E-79  0.3600E+02
  15.340 -0.1511E-79  0.3600E+02
  15.350 -0.1512E-79  0.3600E+02
  15.360 -0.1512E-79  0.3600E+02
  15.370 -0.1513E-79  0.3600E+02
  15.380 -0.1513E-79  0.3600E+02
  15.390 -0.1514E-79  0.3600E+02
  15.400 -0.1514E-79  0.3600E+02
  15.410 -0.1515E-79  0.3600E+02
  15.420 -0.1515E-79  0.3600E+02
  15.430 -0.1516E-79  0.3600E+02
  15.440 -0.1516E-79  0.3600E+02
  15.450 -0.1517E-79  0.3600E+02
  15.460 -0.1517E-79  0.3600E+02
  15.470 -0.1518E-79  0.3600E+02
  15.480 -0.1518E-79  0.3600E+02
  15.490 -0.1519E-79  0.3600E+02
  15.500 -0.1519E-79  0.3600E+02
  15.510 -0.1520E-79  0.3600E+02
  15.520 -0.1520E-79  0.3600E+02
  15.530 -0.1521E-79  0.3600E+02
  15.540 -0.1521E-79  0.3600E+02
  15.550 -0.1522E-79  0.3600E+02
  15.560 -0.1522E-79  0.3600E+02
  15.570 -0.1523E-79  0.3600E+02
  15.580 -0.1523E-79  0.3600E+02
  15.590 -0.1524E-79  0.3600E+02
  15.600 -0.1524E-79  0.3600E+02
  15.610 -0.1525E-79  0.3600E+02
  15.620 -0.1525E-79  0.3600E+02
  15.630 -0.1526E-79  0.3600E+02
  15.640 -0.1526E-79  0.3600E+02
  15.650 -0.1527E-79  0.3600E+02
  15.660 -0.1527E-79  0.3600E+02
  15.670 -0.1528E-79  0.3600E+02
  15.680 -0.1528E-79  0.3600E+02
  15.690 -0.1529E-79  0.3600E+02
  15.700 -0.1529E-79  0.3600E+02
  15.710 -0.1530E-79  0.3600E+02
  15.720 -0.1530E-79  0.3600E+02
  15.730 -0.1531E-79  0.3600E+02
  15.740 -0.1531E-79  0.3600E+02
  15.750 -0.1532E-79  0.3600E+02
  15.760 -0.1532E-79  0.3600E+02
  15.770 -0.1533E-79  0.3600E+02
  15.780 -0.1533E-79  0.3600E+02
  15.790 -0.1534E-79  0.3600E+02
  15.800 -0.1534E-79  0.3600E+02
  15.810 -0.1535E-79  0.3600E+02
  15.820 -0.1535E-79  0.3600E+02
  15.830 -0.1536E-79  0.3600E+02
  15.840 -0.1536E-79  0.3600E+02
  15.850 -0.1537E-79  0.3600E+02
  15.860 -0.1537E-79  0.3600E+02
  15.870 -0.1538E-79  0.3600E+02
  15.880 -0.1538E-79  0.3600E+02
  15.890 -0.1539E-79  0.3600E+02
  15.900 -0.1539E-79  0.3600E+02
  15.910 -0.1540E-79  0.3600E+02
  15.920 -0.1540E-79  0.3600E+02
  15.930 -0.1541E-79  0.3600E+02
  15.940 -0.1541E-79  0.3600E+02
  15.950 -0.1542E-79  0.3600E+02
  15.960 -0.1542E-79  0.3600E+02
  15.970 -0.1543E-79  0.3600E+02
  15.980 -0.1543E-79  0.3600E+02
  15.990 -0.1544E-79  0.3600E+02
  16.000 -0.1544E-79  0.3600E+02
