#  E (eV)   dos(E)     Int dos(E) EFermi =   -1.206 eV
  -9.000 -0.2967E-80 -0.2967E-82
  -8.990 -0.2972E-80 -0.5938E-82
  -8.980 -0.2977E-80 -0.8915E-82
  -8.970 -0.2982E-80 -0.1190E-81
  -8.960 -0.2987E-80 -0.1488E-81
  -8.950 -0.2992E-80 -0.1788E-81
  -8.940 -0.2997E-80 -0.2087E-81
  -8.930 -0.3002E-80 -0.2387E-81
  -8.920 -0.3007E-80 -0.2688E-81
  -8.910 -0.3012E-80 -0.2989E-81
  -8.900 -0.3017E-80 -0.3291E-81
  -8.890 -0.3022E-80 -0.3593E-81
  -8.880 -0.3027E-80 -0.3896E-81
  -8.870 -0.3032E-80 -0.4199E-81
  -8.860 -0.3037E-80 -0.4503E-81
  -8.850 -0.3042E-80 -0.4807E-81
  -8.840 -0.3047E-80 -0.5112E-81
  -8.830 -0.3052E-80 -0.5417E-81
  -8.820 -0.3057E-80 -0.5722E-81
  -8.810 -0.3062E-80 -0.6029E-81
  -8.800 -0.3067E-80 -0.6335E-81
  -8.790 -0.3072E-80 -0.6642E-81
  -8.780 -0.3077E-80 -0.6950E-81
  -8.770 -0.3082E-80 -0.7258E-81
  -8.760 -0.3087E-80 -0.7567E-81
  -8.750 -0.3092E-80 -0.7876E-81
  -8.740 -0.3097E-80 -0.8186E-81
  -8.730 -0.3102E-80 -0.8496E-81
  -8.720 -0.3107E-80 -0.8807E-81
  -8.710 -0.3112E-80 -0.9118E-81
  -8.700 -0.3117E-80 -0.9430E-81
  -8.690 -0.3122E-80 -0.9742E-81
  -8.680 -0.3127E-80 -0.1005E-80
  -8.670  0.5797E-76  0.5787E-78
  -8.660  0.1121E-67  0.1121E-69
  -8.650  0.7342E-60  0.7342E-62
  -8.640  0.1626E-52  0.1626E-54
  -8.630  0.1218E-45  0.1218E-47
  -8.620  0.3083E-39  0.3083E-41
  -8.610  0.2635E-33  0.2635E-35
  -8.600  0.7605E-28  0.7605E-30
  -8.590  0.7399E-23  0.7399E-25
  -8.580  0.2424E-18  0.2424E-20
  -8.570  0.2670E-14  0.2670E-16
  -8.560  0.9866E-11  0.9868E-13
  -8.550  0.1219E-07  0.1220E-09
  -8.540  0.5023E-05  0.5035E-07
  -8.530  0.6860E-03  0.6911E-05
  -8.520  0.3091E-01  0.3160E-03
  -8.510  0.4587E+00  0.4903E-02
  -8.500  0.2273E+01  0.2763E-01
  -8.490  0.3958E+01  0.6721E-01
  -8.480  0.2477E+01  0.9198E-01
  -8.470  0.5510E+00  0.9749E-01
  -8.460  0.1206E+01  0.1095E+00
  -8.450  0.1726E+01  0.1268E+00
  -8.440  0.7754E+00  0.1346E+00
  -8.430  0.9623E-01  0.1355E+00
  -8.420  0.8281E+00  0.1438E+00
  -8.410  0.1110E+01  0.1549E+00
  -8.400  0.5382E+00  0.1603E+00
  -8.390  0.1031E+01  0.1706E+00
  -8.380  0.7272E+00  0.1779E+00
  -8.370  0.7683E-01  0.1786E+00
  -8.360  0.7559E+00  0.1862E+00
  -8.350  0.1138E+01  0.1976E+00
  -8.340  0.2060E+00  0.1996E+00
  -8.330 -0.1124E+00  0.1985E+00
  -8.320  0.3312E+00  0.2018E+00
  -8.310  0.1121E+01  0.2130E+00
  -8.300  0.8700E+00  0.2217E+00
  -8.290  0.2369E+00  0.2241E+00
  -8.280  0.9417E+00  0.2335E+00
  -8.270  0.9515E+00  0.2430E+00
  -8.260  0.1094E-01  0.2431E+00
  -8.250 -0.1209E+00  0.2419E+00
  -8.240 -0.1698E-01  0.2418E+00
  -8.230  0.1829E-01  0.2420E+00
  -8.220  0.2480E+00  0.2444E+00
  -8.210  0.9978E+00  0.2544E+00
  -8.200  0.1203E+01  0.2664E+00
  -8.190  0.9098E+00  0.2755E+00
  -8.180  0.1017E+01  0.2857E+00
  -8.170  0.1845E+00  0.2876E+00
  -8.160 -0.1488E+00  0.2861E+00
  -8.150 -0.3344E-01  0.2857E+00
  -8.140 -0.1698E-02  0.2857E+00
  -8.130 -0.2376E-04  0.2857E+00
  -8.120  0.2390E-03  0.2857E+00
  -8.110  0.1225E-01  0.2858E+00
  -8.100  0.2101E+00  0.2879E+00
  -8.090  0.1207E+01  0.3000E+00
  -8.080  0.2244E+01  0.3224E+00
  -8.070  0.1065E+01  0.3331E+00
  -8.060 -0.1747E+00  0.3313E+00
  -8.050  0.1194E+00  0.3325E+00
  -8.040  0.1882E+01  0.3514E+00
  -8.030  0.4714E+01  0.3985E+00
  -8.020  0.4479E+01  0.4433E+00
  -8.010  0.2603E+01  0.4693E+00
  -8.000  0.1888E+01  0.4882E+00
  -7.990  0.2121E+01  0.5094E+00
  -7.980  0.1592E+01  0.5253E+00
  -7.970  0.1681E+01  0.5422E+00
  -7.960  0.3309E+01  0.5752E+00
  -7.950  0.3392E+01  0.6092E+00
  -7.940  0.1397E+01  0.6231E+00
  -7.930  0.1248E+01  0.6356E+00
  -7.920  0.1912E+01  0.6547E+00
  -7.910  0.1033E+01  0.6651E+00
  -7.900  0.7920E+00  0.6730E+00
  -7.890  0.9699E+00  0.6827E+00
  -7.880  0.5314E+00  0.6880E+00
  -7.870  0.1601E+01  0.7040E+00
  -7.860  0.2015E+01  0.7242E+00
  -7.850  0.5256E+00  0.7294E+00
  -7.840  0.4924E+00  0.7343E+00
  -7.830  0.1989E+01  0.7542E+00
  -7.820  0.2184E+01  0.7761E+00
  -7.810  0.1400E+01  0.7901E+00
  -7.800  0.1095E+01  0.8010E+00
  -7.790  0.1783E+01  0.8189E+00
  -7.780  0.1715E+01  0.8360E+00
  -7.770  0.2041E+00  0.8381E+00
  -7.760 -0.2983E-01  0.8378E+00
  -7.750  0.1196E+01  0.8497E+00
  -7.740  0.2376E+01  0.8735E+00
  -7.730  0.9629E+00  0.8831E+00
  -7.720 -0.2307E+00  0.8808E+00
  -7.710  0.3314E+00  0.8841E+00
  -7.700  0.1876E+01  0.9029E+00
  -7.690  0.2175E+01  0.9246E+00
  -7.680  0.6728E+00  0.9313E+00
  -7.670  0.9331E+00  0.9407E+00
  -7.660  0.9590E+00  0.9503E+00
  -7.650  0.9546E+00  0.9598E+00
  -7.640  0.9876E+00  0.9697E+00
  -7.630  0.7106E+00  0.9768E+00
  -7.620  0.1121E+01  0.9880E+00
  -7.610  0.7439E+00  0.9954E+00
  -7.600  0.1390E+01  0.1009E+01
  -7.590  0.1979E+01  0.1029E+01
  -7.580  0.7711E+00  0.1037E+01
  -7.570  0.3893E+00  0.1041E+01
  -7.560  0.1453E+01  0.1055E+01
  -7.550  0.1656E+01  0.1072E+01
  -7.540  0.7446E+00  0.1079E+01
  -7.530 -0.9614E-01  0.1078E+01
  -7.520  0.7430E-01  0.1079E+01
  -7.510  0.1098E+01  0.1090E+01
  -7.500  0.2183E+01  0.1112E+01
  -7.490  0.1203E+01  0.1124E+01
  -7.480 -0.1217E+00  0.1123E+01
  -7.470 -0.1332E+00  0.1121E+01
  -7.460  0.3653E+00  0.1125E+01
  -7.450  0.1856E+01  0.1144E+01
  -7.440  0.2847E+01  0.1172E+01
  -7.430  0.1874E+01  0.1191E+01
  -7.420  0.1344E+01  0.1204E+01
  -7.410  0.8153E+00  0.1212E+01
  -7.400  0.6201E+00  0.1219E+01
  -7.390  0.1088E+01  0.1229E+01
  -7.380  0.3345E+00  0.1233E+01
  -7.370 -0.1492E+00  0.1231E+01
  -7.360  0.3899E-01  0.1232E+01
  -7.350  0.7490E+00  0.1239E+01
  -7.340  0.2188E+01  0.1261E+01
  -7.330  0.2192E+01  0.1283E+01
  -7.320  0.1212E+01  0.1295E+01
  -7.310  0.4466E+00  0.1300E+01
  -7.300  0.2510E+00  0.1302E+01
  -7.290  0.1105E+01  0.1313E+01
  -7.280  0.1114E+01  0.1324E+01
  -7.270  0.1463E+01  0.1339E+01
  -7.260  0.2432E+01  0.1363E+01
  -7.250  0.2183E+01  0.1385E+01
  -7.240  0.2301E+01  0.1408E+01
  -7.230  0.2010E+01  0.1428E+01
  -7.220  0.6724E+00  0.1435E+01
  -7.210  0.1416E+01  0.1449E+01
  -7.200  0.3775E+01  0.1487E+01
  -7.190  0.3993E+01  0.1527E+01
  -7.180  0.2851E+01  0.1555E+01
  -7.170  0.1365E+01  0.1569E+01
  -7.160  0.1081E+01  0.1580E+01
  -7.150  0.1646E+01  0.1596E+01
  -7.140  0.2230E+01  0.1618E+01
  -7.130  0.1744E+01  0.1636E+01
  -7.120  0.1080E+01  0.1647E+01
  -7.110  0.7565E+00  0.1654E+01
  -7.100  0.1290E+01  0.1667E+01
  -7.090  0.2192E+01  0.1689E+01
  -7.080  0.2034E+01  0.1709E+01
  -7.070  0.2254E+01  0.1732E+01
  -7.060  0.9863E+00  0.1742E+01
  -7.050  0.6659E+00  0.1748E+01
  -7.040  0.2228E+01  0.1771E+01
  -7.030  0.1474E+01  0.1785E+01
  -7.020  0.5850E+00  0.1791E+01
  -7.010  0.1283E+01  0.1804E+01
  -7.000  0.1287E+01  0.1817E+01
  -6.990  0.8813E+00  0.1826E+01
  -6.980  0.2833E+00  0.1829E+01
  -6.970  0.1114E+01  0.1840E+01
  -6.960  0.2284E+01  0.1863E+01
  -6.950  0.2317E+01  0.1886E+01
  -6.940  0.8885E+00  0.1895E+01
  -6.930  0.3399E+00  0.1898E+01
  -6.920  0.1339E+01  0.1912E+01
  -6.910  0.1538E+01  0.1927E+01
  -6.900  0.1146E+01  0.1938E+01
  -6.890  0.1449E+01  0.1953E+01
  -6.880  0.2252E+01  0.1975E+01
  -6.870  0.6654E+00  0.1982E+01
  -6.860 -0.2999E+00  0.1979E+01
  -6.850 -0.9258E-01  0.1978E+01
  -6.840 -0.5833E-02  0.1978E+01
  -6.830 -0.7526E-04  0.1978E+01
  -6.820  0.2626E-02  0.1978E+01
  -6.810  0.7332E-01  0.1979E+01
  -6.800  0.6840E+00  0.1986E+01
  -6.790  0.2106E+01  0.2007E+01
  -6.780  0.2175E+01  0.2028E+01
  -6.770  0.1220E+01  0.2041E+01
  -6.760  0.5983E+00  0.2047E+01
  -6.750  0.3358E+00  0.2050E+01
  -6.740  0.1675E+01  0.2067E+01
  -6.730  0.2073E+01  0.2087E+01
  -6.720  0.3757E+00  0.2091E+01
  -6.710 -0.2235E+00  0.2089E+01
  -6.700  0.3873E+00  0.2093E+01
  -6.690  0.1922E+01  0.2112E+01
  -6.680  0.2489E+01  0.2137E+01
  -6.670  0.1814E+01  0.2155E+01
  -6.660  0.1941E+01  0.2174E+01
  -6.650  0.7110E+00  0.2182E+01
  -6.640  0.6578E+00  0.2188E+01
  -6.630  0.1009E+01  0.2198E+01
  -6.620  0.1207E+00  0.2199E+01
  -6.610 -0.1340E+00  0.2198E+01
  -6.600  0.1225E+00  0.2199E+01
  -6.590  0.1115E+01  0.2211E+01
  -6.580  0.2428E+01  0.2235E+01
  -6.570  0.1136E+01  0.2246E+01
  -6.560  0.1785E-02  0.2246E+01
  -6.550  0.8916E+00  0.2255E+01
  -6.540  0.1116E+01  0.2266E+01
  -6.530  0.8924E+00  0.2275E+01
  -6.520  0.1872E+01  0.2294E+01
  -6.510  0.2067E+01  0.2315E+01
  -6.500  0.1446E+01  0.2329E+01
  -6.490  0.8321E+00  0.2337E+01
  -6.480  0.1532E+01  0.2353E+01
  -6.470  0.2593E+01  0.2379E+01
  -6.460  0.1847E+01  0.2397E+01
  -6.450  0.2390E+00  0.2399E+01
  -6.440  0.3639E+00  0.2403E+01
  -6.430  0.1863E+01  0.2422E+01
  -6.420  0.3027E+01  0.2452E+01
  -6.410  0.3277E+01  0.2485E+01
  -6.400  0.2083E+01  0.2506E+01
  -6.390  0.3555E+00  0.2509E+01
  -6.380 -0.2649E+00  0.2507E+01
  -6.370 -0.6119E-01  0.2506E+01
  -6.360  0.4218E+00  0.2510E+01
  -6.350  0.2197E+01  0.2532E+01
  -6.340  0.4267E+01  0.2575E+01
  -6.330  0.2893E+01  0.2604E+01
  -6.320  0.9524E+00  0.2613E+01
  -6.310  0.4500E+00  0.2618E+01
  -6.300 -0.1197E+00  0.2617E+01
  -6.290  0.3551E-01  0.2617E+01
  -6.280  0.1035E+01  0.2627E+01
  -6.270  0.2704E+01  0.2654E+01
  -6.260  0.2374E+01  0.2678E+01
  -6.250  0.6765E+00  0.2685E+01
  -6.240  0.3792E-01  0.2685E+01
  -6.230  0.1276E+01  0.2698E+01
  -6.220  0.2495E+01  0.2723E+01
  -6.210  0.1641E+01  0.2739E+01
  -6.200  0.2056E+01  0.2760E+01
  -6.190  0.1597E+01  0.2776E+01
  -6.180  0.7944E+00  0.2784E+01
  -6.170  0.8552E+00  0.2792E+01
  -6.160  0.5051E-01  0.2793E+01
  -6.150 -0.7072E-02  0.2793E+01
  -6.140  0.1058E+01  0.2803E+01
  -6.130  0.3003E+01  0.2833E+01
  -6.120  0.2537E+01  0.2859E+01
  -6.110  0.6348E+00  0.2865E+01
  -6.100  0.1418E+01  0.2879E+01
  -6.090  0.2380E+01  0.2903E+01
  -6.080  0.1472E+01  0.2918E+01
  -6.070  0.1237E+01  0.2930E+01
  -6.060  0.1570E+01  0.2946E+01
  -6.050  0.1785E+01  0.2964E+01
  -6.040  0.1064E+01  0.2974E+01
  -6.030  0.1016E+01  0.2984E+01
  -6.020  0.1051E+01  0.2995E+01
  -6.010  0.1066E+01  0.3006E+01
  -6.000  0.1155E+01  0.3017E+01
  -5.990  0.1655E+01  0.3034E+01
  -5.980  0.2281E+01  0.3057E+01
  -5.970  0.1531E+01  0.3072E+01
  -5.960  0.1572E+01  0.3088E+01
  -5.950  0.1253E+01  0.3100E+01
  -5.940  0.5892E+00  0.3106E+01
  -5.930  0.1172E+01  0.3118E+01
  -5.920  0.1570E+01  0.3133E+01
  -5.910  0.1095E+01  0.3144E+01
  -5.900  0.5658E+00  0.3150E+01
  -5.890  0.1038E+01  0.3160E+01
  -5.880  0.7394E+00  0.3168E+01
  -5.870  0.5161E+00  0.3173E+01
  -5.860  0.1339E+01  0.3186E+01
  -5.850  0.1845E+01  0.3205E+01
  -5.840  0.3026E+01  0.3235E+01
  -5.830  0.4099E+01  0.3276E+01
  -5.820  0.7440E+01  0.3350E+01
  -5.810  0.8981E+01  0.3440E+01
  -5.800  0.4511E+01  0.3485E+01
  -5.790  0.1636E+01  0.3502E+01
  -5.780  0.2410E+01  0.3526E+01
  -5.770  0.3871E+01  0.3565E+01
  -5.760  0.2798E+01  0.3593E+01
  -5.750  0.1540E+01  0.3608E+01
  -5.740  0.2705E+01  0.3635E+01
  -5.730  0.3282E+01  0.3668E+01
  -5.720  0.1659E+01  0.3684E+01
  -5.710  0.1238E+01  0.3697E+01
  -5.700  0.1984E+01  0.3717E+01
  -5.690  0.2107E+01  0.3738E+01
  -5.680  0.1556E+01  0.3753E+01
  -5.670  0.3240E+01  0.3786E+01
  -5.660  0.3425E+01  0.3820E+01
  -5.650  0.3026E+01  0.3850E+01
  -5.640  0.2356E+01  0.3874E+01
  -5.630  0.1052E+01  0.3884E+01
  -5.620  0.2218E+01  0.3906E+01
  -5.610  0.1972E+01  0.3926E+01
  -5.600  0.1772E+01  0.3944E+01
  -5.590  0.1425E+01  0.3958E+01
  -5.580  0.4620E+00  0.3963E+01
  -5.570  0.1487E+01  0.3978E+01
  -5.560  0.2773E+01  0.4005E+01
  -5.550  0.2978E+01  0.4035E+01
  -5.540  0.3282E+01  0.4068E+01
  -5.530  0.2225E+01  0.4090E+01
  -5.520  0.1075E+01  0.4101E+01
  -5.510  0.1103E+01  0.4112E+01
  -5.500  0.1601E+01  0.4128E+01
  -5.490  0.3719E+01  0.4165E+01
  -5.480  0.3748E+01  0.4203E+01
  -5.470  0.2007E+01  0.4223E+01
  -5.460  0.1860E+01  0.4241E+01
  -5.450  0.1201E+01  0.4253E+01
  -5.440  0.1909E+01  0.4272E+01
  -5.430  0.1864E+01  0.4291E+01
  -5.420  0.1440E+01  0.4305E+01
  -5.410  0.3030E+01  0.4336E+01
  -5.400  0.3544E+01  0.4371E+01
  -5.390  0.2815E+01  0.4399E+01
  -5.380  0.1955E+01  0.4419E+01
  -5.370  0.3165E+01  0.4451E+01
  -5.360  0.3352E+01  0.4484E+01
  -5.350  0.4096E+01  0.4525E+01
  -5.340  0.4895E+01  0.4574E+01
  -5.330  0.4198E+01  0.4616E+01
  -5.320  0.4660E+01  0.4663E+01
  -5.310  0.2638E+01  0.4689E+01
  -5.300  0.1128E+00  0.4690E+01
  -5.290  0.1666E+01  0.4707E+01
  -5.280  0.3137E+01  0.4738E+01
  -5.270  0.1341E+01  0.4751E+01
  -5.260 -0.2031E+00  0.4749E+01
  -5.250 -0.1666E+00  0.4748E+01
  -5.240  0.2727E+00  0.4750E+01
  -5.230  0.1248E+01  0.4763E+01
  -5.220  0.2023E+01  0.4783E+01
  -5.210  0.1885E+01  0.4802E+01
  -5.200  0.1215E+01  0.4814E+01
  -5.190  0.3449E+00  0.4818E+01
  -5.180  0.1064E+01  0.4828E+01
  -5.170  0.2266E+01  0.4851E+01
  -5.160  0.9961E+00  0.4861E+01
  -5.150 -0.1031E+00  0.4860E+01
  -5.140  0.8768E+00  0.4869E+01
  -5.130  0.2386E+01  0.4893E+01
  -5.120  0.1554E+01  0.4908E+01
  -5.110  0.9336E+00  0.4917E+01
  -5.100  0.1738E+01  0.4935E+01
  -5.090  0.2088E+01  0.4956E+01
  -5.080  0.2685E+01  0.4982E+01
  -5.070  0.4169E+01  0.5024E+01
  -5.060  0.4923E+01  0.5073E+01
  -5.050  0.3495E+01  0.5108E+01
  -5.040  0.2986E+01  0.5138E+01
  -5.030  0.4745E+01  0.5186E+01
  -5.020  0.5322E+01  0.5239E+01
  -5.010  0.7780E+01  0.5317E+01
  -5.000  0.1183E+02  0.5435E+01
  -4.990  0.8894E+01  0.5524E+01
  -4.980  0.6719E+01  0.5591E+01
  -4.970  0.6702E+01  0.5658E+01
  -4.960  0.4083E+01  0.5699E+01
  -4.950  0.2415E+01  0.5723E+01
  -4.940  0.2749E+01  0.5751E+01
  -4.930  0.3082E+01  0.5781E+01
  -4.920  0.3359E+01  0.5815E+01
  -4.910  0.3901E+01  0.5854E+01
  -4.900  0.5097E+01  0.5905E+01
  -4.890  0.6360E+01  0.5969E+01
  -4.880  0.3919E+01  0.6008E+01
  -4.870 -0.1258E+00  0.6007E+01
  -4.860 -0.5590E+00  0.6001E+01
  -4.850 -0.8784E-01  0.6000E+01
  -4.840 -0.3709E-02  0.6000E+01
  -4.830 -0.4859E-04  0.6000E+01
  -4.820 -0.2062E-06  0.6000E+01
  -4.810 -0.2889E-09  0.6000E+01
  -4.800 -0.1348E-12  0.6000E+01
  -4.790 -0.2105E-16  0.6000E+01
  -4.780 -0.1105E-20  0.6000E+01
  -4.770 -0.1951E-25  0.6000E+01
  -4.760 -0.1162E-30  0.6000E+01
  -4.750 -0.2336E-36  0.6000E+01
  -4.740 -0.1587E-42  0.6000E+01
  -4.730 -0.3644E-49  0.6000E+01
  -4.720 -0.2831E-56  0.6000E+01
  -4.710 -0.7442E-64  0.6000E+01
  -4.700 -0.6624E-72  0.6000E+01
  -4.690 -0.7123E-80  0.6000E+01
  -4.680 -0.5131E-80  0.6000E+01
  -4.670 -0.5136E-80  0.6000E+01
  -4.660 -0.5141E-80  0.6000E+01
  -4.650 -0.5146E-80  0.6000E+01
  -4.640 -0.5151E-80  0.6000E+01
  -4.630 -0.5156E-80  0.6000E+01
  -4.620 -0.5052E-80  0.6000E+01
  -4.610  0.4157E-73  0.6000E+01
  -4.600  0.5361E-65  0.6000E+01
  -4.590  0.2340E-57  0.6000E+01
  -4.580  0.3454E-50  0.6000E+01
  -4.570  0.1724E-43  0.6000E+01
  -4.560  0.2908E-37  0.6000E+01
  -4.550  0.1657E-31  0.6000E+01
  -4.540  0.3187E-26  0.6000E+01
  -4.530  0.2068E-21  0.6000E+01
  -4.520  0.4521E-17  0.6000E+01
  -4.510  0.3329E-13  0.6000E+01
  -4.500  0.8254E-10  0.6000E+01
  -4.490  0.6888E-07  0.6000E+01
  -4.480  0.1938E-04  0.6000E+01
  -4.470  0.1846E-02  0.6000E+01
  -4.460  0.6000E-01  0.6001E+01
  -4.450  0.6721E+00  0.6007E+01
  -4.440  0.2615E+01  0.6033E+01
  -4.430  0.3576E+01  0.6069E+01
  -4.420  0.2179E+01  0.6091E+01
  -4.410  0.1622E+01  0.6107E+01
  -4.400  0.1528E+01  0.6123E+01
  -4.390  0.1123E+01  0.6134E+01
  -4.380  0.8692E+00  0.6142E+01
  -4.370  0.2561E+01  0.6168E+01
  -4.360  0.4836E+01  0.6216E+01
  -4.350  0.4169E+01  0.6258E+01
  -4.340  0.1542E+01  0.6274E+01
  -4.330  0.1573E+01  0.6289E+01
  -4.320  0.3629E+01  0.6326E+01
  -4.310  0.2810E+01  0.6354E+01
  -4.300  0.5555E+00  0.6359E+01
  -4.290  0.7313E+00  0.6367E+01
  -4.280  0.1732E+01  0.6384E+01
  -4.270  0.2693E+01  0.6411E+01
  -4.260  0.2822E+01  0.6439E+01
  -4.250  0.1492E+01  0.6454E+01
  -4.240  0.8803E+00  0.6463E+01
  -4.230  0.3306E+00  0.6466E+01
  -4.220  0.1196E+01  0.6478E+01
  -4.210  0.2839E+01  0.6506E+01
  -4.200  0.2950E+01  0.6536E+01
  -4.190  0.1640E+01  0.6552E+01
  -4.180  0.6833E-01  0.6553E+01
  -4.170  0.3544E+00  0.6557E+01
  -4.160  0.2046E+01  0.6577E+01
  -4.150  0.2494E+01  0.6602E+01
  -4.140  0.1384E+01  0.6616E+01
  -4.130  0.7235E+00  0.6623E+01
  -4.120  0.1380E+01  0.6637E+01
  -4.110  0.2200E+01  0.6659E+01
  -4.100  0.1897E+01  0.6678E+01
  -4.090  0.7144E+00  0.6685E+01
  -4.080  0.3268E+00  0.6688E+01
  -4.070  0.1650E+01  0.6705E+01
  -4.060  0.1973E+01  0.6724E+01
  -4.050  0.6945E+00  0.6731E+01
  -4.040  0.1277E+01  0.6744E+01
  -4.030  0.2411E+01  0.6768E+01
  -4.020  0.1425E+01  0.6782E+01
  -4.010  0.9933E+00  0.6792E+01
  -4.000  0.8434E+00  0.6801E+01
  -3.990  0.1070E+01  0.6812E+01
  -3.980  0.5833E+00  0.6817E+01
  -3.970  0.9790E+00  0.6827E+01
  -3.960  0.2202E+01  0.6849E+01
  -3.950  0.1849E+01  0.6868E+01
  -3.940  0.1119E+01  0.6879E+01
  -3.930  0.4812E+00  0.6884E+01
  -3.920  0.1153E+01  0.6895E+01
  -3.910  0.2334E+01  0.6919E+01
  -3.900  0.8586E+00  0.6927E+01
  -3.890 -0.1780E+00  0.6925E+01
  -3.880  0.6137E+00  0.6931E+01
  -3.870  0.1751E+01  0.6949E+01
  -3.860  0.1758E+01  0.6967E+01
  -3.850  0.1165E+01  0.6978E+01
  -3.840  0.1207E+01  0.6990E+01
  -3.830  0.1173E+01  0.7002E+01
  -3.820  0.1167E+01  0.7014E+01
  -3.810  0.1028E+01  0.7024E+01
  -3.800  0.9933E+00  0.7034E+01
  -3.790  0.4676E+00  0.7039E+01
  -3.780  0.9689E+00  0.7048E+01
  -3.770  0.8678E+00  0.7057E+01
  -3.760  0.3812E+00  0.7061E+01
  -3.750  0.1827E+01  0.7079E+01
  -3.740  0.3014E+01  0.7109E+01
  -3.730  0.1515E+01  0.7124E+01
  -3.720 -0.9335E-01  0.7123E+01
  -3.710 -0.1561E+00  0.7122E+01
  -3.700  0.4540E+00  0.7126E+01
  -3.690  0.1386E+01  0.7140E+01
  -3.680  0.1644E+01  0.7157E+01
  -3.670  0.1583E+01  0.7172E+01
  -3.660  0.1614E+01  0.7189E+01
  -3.650  0.1948E+01  0.7208E+01
  -3.640  0.2066E+01  0.7229E+01
  -3.630  0.5644E+00  0.7234E+01
  -3.620 -0.2660E+00  0.7232E+01
  -3.610 -0.9173E-01  0.7231E+01
  -3.600 -0.6507E-02  0.7231E+01
  -3.590  0.1026E-01  0.7231E+01
  -3.580  0.1686E+00  0.7233E+01
  -3.570  0.8467E+00  0.7241E+01
  -3.560  0.1270E+01  0.7254E+01
  -3.550  0.9243E+00  0.7263E+01
  -3.540  0.1057E+01  0.7274E+01
  -3.530  0.3224E+00  0.7277E+01
  -3.520 -0.1536E+00  0.7275E+01
  -3.510 -0.4726E-01  0.7275E+01
  -3.500 -0.2947E-02  0.7275E+01
  -3.490 -0.4185E-04  0.7275E+01
  -3.480  0.1134E-02  0.7275E+01
  -3.470  0.3886E-01  0.7275E+01
  -3.460  0.4462E+00  0.7280E+01
  -3.450  0.1712E+01  0.7297E+01
  -3.440  0.2065E+01  0.7317E+01
  -3.430  0.4606E+00  0.7322E+01
  -3.420 -0.1992E+00  0.7320E+01
  -3.410  0.3516E+00  0.7323E+01
  -3.400  0.1164E+01  0.7335E+01
  -3.390  0.8073E+00  0.7343E+01
  -3.380  0.4021E+00  0.7347E+01
  -3.370  0.1117E+01  0.7358E+01
  -3.360  0.8294E+00  0.7367E+01
  -3.350  0.1038E+01  0.7377E+01
  -3.340  0.2547E+01  0.7403E+01
  -3.330  0.2388E+01  0.7426E+01
  -3.320  0.5956E+00  0.7432E+01
  -3.310 -0.2630E+00  0.7430E+01
  -3.300 -0.1059E+00  0.7429E+01
  -3.290  0.3226E-01  0.7429E+01
  -3.280  0.4046E+00  0.7433E+01
  -3.270  0.1250E+01  0.7446E+01
  -3.260  0.1445E+01  0.7460E+01
  -3.250  0.1184E+01  0.7472E+01
  -3.240  0.7569E+00  0.7479E+01
  -3.230  0.1141E+01  0.7491E+01
  -3.220  0.1486E+01  0.7506E+01
  -3.210  0.1095E+01  0.7517E+01
  -3.200  0.1906E+00  0.7519E+01
  -3.190 -0.1615E+00  0.7517E+01
  -3.180 -0.4040E-01  0.7517E+01
  -3.170  0.1357E-01  0.7517E+01
  -3.160  0.2803E+00  0.7519E+01
  -3.150  0.1542E+01  0.7535E+01
  -3.140  0.2467E+01  0.7560E+01
  -3.130  0.1476E+01  0.7574E+01
  -3.120  0.2051E+01  0.7595E+01
  -3.110  0.1396E+01  0.7609E+01
  -3.100  0.1951E+00  0.7611E+01
  -3.090  0.1036E+01  0.7621E+01
  -3.080  0.1295E+01  0.7634E+01
  -3.070  0.1130E+01  0.7645E+01
  -3.060  0.5218E+00  0.7651E+01
  -3.050 -0.5909E-01  0.7650E+01
  -3.040  0.6294E+00  0.7656E+01
  -3.030  0.2298E+01  0.7679E+01
  -3.020  0.3062E+01  0.7710E+01
  -3.010  0.2234E+01  0.7732E+01
  -3.000  0.1098E+01  0.7743E+01
  -2.990  0.9259E+00  0.7752E+01
  -2.980  0.1170E+01  0.7764E+01
  -2.970  0.1763E+01  0.7782E+01
  -2.960  0.2103E+01  0.7803E+01
  -2.950  0.2875E+00  0.7806E+01
  -2.940 -0.2291E+00  0.7803E+01
  -2.930  0.4240E+00  0.7808E+01
  -2.920  0.1307E+01  0.7821E+01
  -2.910  0.1827E+01  0.7839E+01
  -2.900  0.3720E+01  0.7876E+01
  -2.890  0.4270E+01  0.7919E+01
  -2.880  0.3098E+01  0.7950E+01
  -2.870  0.4824E+01  0.7998E+01
  -2.860  0.4400E+01  0.8042E+01
  -2.850  0.2370E+01  0.8066E+01
  -2.840  0.1648E+01  0.8082E+01
  -2.830  0.1789E+01  0.8100E+01
  -2.820  0.2442E+01  0.8125E+01
  -2.810  0.3373E+01  0.8158E+01
  -2.800  0.3584E+01  0.8194E+01
  -2.790  0.4355E+01  0.8238E+01
  -2.780  0.5204E+01  0.8290E+01
  -2.770  0.3159E+01  0.8321E+01
  -2.760  0.1911E+01  0.8340E+01
  -2.750  0.2136E+01  0.8362E+01
  -2.740  0.1972E+01  0.8381E+01
  -2.730  0.2779E+01  0.8409E+01
  -2.720  0.3336E+01  0.8443E+01
  -2.710  0.2635E+01  0.8469E+01
  -2.700  0.1746E+01  0.8486E+01
  -2.690  0.1861E+01  0.8505E+01
  -2.680  0.1302E+01  0.8518E+01
  -2.670  0.3193E+01  0.8550E+01
  -2.660  0.5255E+01  0.8603E+01
  -2.650  0.2220E+01  0.8625E+01
  -2.640 -0.1194E-01  0.8625E+01
  -2.630  0.9257E+00  0.8634E+01
  -2.620  0.7038E+00  0.8641E+01
  -2.610  0.6558E+00  0.8647E+01
  -2.600  0.1341E+01  0.8661E+01
  -2.590  0.1575E+01  0.8677E+01
  -2.580  0.2227E+01  0.8699E+01
  -2.570  0.1601E+01  0.8715E+01
  -2.560  0.1960E+01  0.8735E+01
  -2.550  0.3294E+01  0.8767E+01
  -2.540  0.2593E+01  0.8793E+01
  -2.530  0.8099E+00  0.8802E+01
  -2.520  0.1667E+01  0.8818E+01
  -2.510  0.1897E+01  0.8837E+01
  -2.500  0.3514E+00  0.8841E+01
  -2.490  0.8668E+00  0.8849E+01
  -2.480  0.1858E+01  0.8868E+01
  -2.470  0.1846E+01  0.8886E+01
  -2.460  0.2566E+01  0.8912E+01
  -2.450  0.3008E+01  0.8942E+01
  -2.440  0.1249E+01  0.8955E+01
  -2.430  0.8608E+00  0.8963E+01
  -2.420  0.8875E+00  0.8972E+01
  -2.410  0.9259E+00  0.8981E+01
  -2.400  0.9257E+00  0.8991E+01
  -2.390  0.3798E+00  0.8994E+01
  -2.380  0.1382E+01  0.9008E+01
  -2.370  0.3194E+01  0.9040E+01
  -2.360  0.4454E+01  0.9085E+01
  -2.350  0.2181E+01  0.9107E+01
  -2.340  0.6729E-01  0.9107E+01
  -2.330  0.1353E+01  0.9121E+01
  -2.320  0.2366E+01  0.9144E+01
  -2.310  0.1835E+01  0.9163E+01
  -2.300  0.6806E+00  0.9170E+01
  -2.290  0.9751E+00  0.9179E+01
  -2.280  0.3723E+01  0.9217E+01
  -2.270  0.6714E+01  0.9284E+01
  -2.260  0.6804E+01  0.9352E+01
  -2.250  0.4438E+01  0.9396E+01
  -2.240  0.2442E+01  0.9421E+01
  -2.230  0.1619E+01  0.9437E+01
  -2.220  0.2430E+01  0.9461E+01
  -2.210  0.3989E+01  0.9501E+01
  -2.200  0.3992E+01  0.9541E+01
  -2.190  0.4151E+01  0.9582E+01
  -2.180  0.4345E+01  0.9626E+01
  -2.170  0.4489E+01  0.9671E+01
  -2.160  0.6339E+01  0.9734E+01
  -2.150  0.6992E+01  0.9804E+01
  -2.140  0.4918E+01  0.9853E+01
  -2.130  0.4884E+01  0.9902E+01
  -2.120  0.4613E+01  0.9948E+01
  -2.110  0.2552E+01  0.9974E+01
  -2.100  0.3253E+01  0.1001E+02
  -2.090  0.3904E+01  0.1005E+02
  -2.080  0.3082E+01  0.1008E+02
  -2.070  0.3477E+01  0.1011E+02
  -2.060  0.5246E+01  0.1016E+02
  -2.050  0.4790E+01  0.1021E+02
  -2.040  0.3487E+01  0.1025E+02
  -2.030  0.3567E+01  0.1028E+02
  -2.020  0.5637E+01  0.1034E+02
  -2.010  0.6196E+01  0.1040E+02
  -2.000  0.4281E+01  0.1044E+02
  -1.990  0.2901E+01  0.1047E+02
  -1.980  0.1855E+01  0.1049E+02
  -1.970  0.1767E+01  0.1051E+02
  -1.960  0.1434E+01  0.1052E+02
  -1.950  0.2851E+01  0.1055E+02
  -1.940  0.2396E+01  0.1057E+02
  -1.930  0.1056E+01  0.1059E+02
  -1.920  0.2408E+01  0.1061E+02
  -1.910  0.2579E+01  0.1064E+02
  -1.900  0.6471E+00  0.1064E+02
  -1.890  0.1586E+00  0.1064E+02
  -1.880  0.1494E+01  0.1066E+02
  -1.870  0.2187E+01  0.1068E+02
  -1.860  0.1658E+01  0.1070E+02
  -1.850  0.1692E+01  0.1071E+02
  -1.840  0.1256E+01  0.1073E+02
  -1.830  0.1325E+00  0.1073E+02
  -1.820 -0.1738E+00  0.1073E+02
  -1.810  0.1308E+00  0.1073E+02
  -1.800  0.1273E+01  0.1074E+02
  -1.790  0.3530E+01  0.1078E+02
  -1.780  0.5128E+01  0.1083E+02
  -1.770  0.7643E+01  0.1090E+02
  -1.760  0.1008E+02  0.1100E+02
  -1.750  0.1034E+02  0.1111E+02
  -1.740  0.5979E+01  0.1117E+02
  -1.730  0.1866E+01  0.1119E+02
  -1.720  0.5584E+00  0.1119E+02
  -1.710  0.1348E+00  0.1119E+02
  -1.700  0.1415E+01  0.1121E+02
  -1.690  0.2225E+01  0.1123E+02
  -1.680  0.5628E+00  0.1123E+02
  -1.670 -0.1895E+00  0.1123E+02
  -1.660  0.5155E+00  0.1124E+02
  -1.650  0.1213E+01  0.1125E+02
  -1.640  0.5045E+00  0.1125E+02
  -1.630 -0.6219E-01  0.1125E+02
  -1.620  0.7270E+00  0.1126E+02
  -1.610  0.2481E+01  0.1129E+02
  -1.600  0.3029E+01  0.1132E+02
  -1.590  0.3727E+01  0.1135E+02
  -1.580  0.6233E+01  0.1142E+02
  -1.570  0.8643E+01  0.1150E+02
  -1.560  0.8553E+01  0.1159E+02
  -1.550  0.4713E+01  0.1164E+02
  -1.540  0.2499E+01  0.1166E+02
  -1.530  0.3583E+01  0.1170E+02
  -1.520  0.5112E+01  0.1175E+02
  -1.510  0.4382E+01  0.1179E+02
  -1.500  0.6200E+01  0.1185E+02
  -1.490  0.8014E+01  0.1193E+02
  -1.480  0.7329E+01  0.1201E+02
  -1.470  0.4540E+01  0.1205E+02
  -1.460  0.5153E+00  0.1206E+02
  -1.450  0.2387E+01  0.1208E+02
  -1.440  0.6622E+01  0.1215E+02
  -1.430  0.4661E+01  0.1219E+02
  -1.420  0.1025E+01  0.1220E+02
  -1.410  0.8433E+00  0.1221E+02
  -1.400  0.2102E+01  0.1223E+02
  -1.390  0.2825E+01  0.1226E+02
  -1.380  0.2304E+01  0.1228E+02
  -1.370  0.2235E+01  0.1231E+02
  -1.360  0.1837E+01  0.1233E+02
  -1.350  0.1792E+01  0.1234E+02
  -1.340  0.3921E+01  0.1238E+02
  -1.330  0.4982E+01  0.1243E+02
  -1.320  0.1673E+01  0.1245E+02
  -1.310  0.8105E+00  0.1246E+02
  -1.300  0.3164E+01  0.1249E+02
  -1.290  0.2827E+01  0.1252E+02
  -1.280  0.1157E+01  0.1253E+02
  -1.270  0.8466E+00  0.1254E+02
  -1.260  0.2096E+01  0.1256E+02
  -1.250  0.2587E+01  0.1258E+02
  -1.240  0.2577E+01  0.1261E+02
  -1.230  0.3800E+01  0.1265E+02
  -1.220  0.3752E+01  0.1269E+02
  -1.210  0.1912E+01  0.1270E+02
  -1.200  0.7231E+00  0.1271E+02
  -1.190  0.2144E+01  0.1273E+02
  -1.180  0.3626E+01  0.1277E+02
  -1.170  0.1826E+01  0.1279E+02
  -1.160  0.1176E+01  0.1280E+02
  -1.150  0.2226E+01  0.1282E+02
  -1.140  0.2806E+01  0.1285E+02
  -1.130  0.1552E+01  0.1287E+02
  -1.120  0.2637E+01  0.1289E+02
  -1.110  0.5673E+01  0.1295E+02
  -1.100  0.4113E+01  0.1299E+02
  -1.090  0.1716E+01  0.1301E+02
  -1.080  0.2001E+01  0.1303E+02
  -1.070  0.1304E+01  0.1304E+02
  -1.060  0.1503E+01  0.1305E+02
  -1.050  0.4356E+01  0.1310E+02
  -1.040  0.6032E+01  0.1316E+02
  -1.030  0.7549E+01  0.1323E+02
  -1.020  0.8410E+01  0.1332E+02
  -1.010  0.4716E+01  0.1337E+02
  -1.000  0.2828E+01  0.1339E+02
  -0.990  0.3479E+01  0.1343E+02
  -0.980  0.3692E+01  0.1347E+02
  -0.970  0.2732E+01  0.1349E+02
  -0.960  0.2988E+01  0.1352E+02
  -0.950  0.5141E+01  0.1357E+02
  -0.940  0.5847E+01  0.1363E+02
  -0.930  0.6655E+01  0.1370E+02
  -0.920  0.5572E+01  0.1375E+02
  -0.910  0.2533E+01  0.1378E+02
  -0.900  0.1828E+01  0.1380E+02
  -0.890  0.1147E+01  0.1381E+02
  -0.880  0.1097E+01  0.1382E+02
  -0.870  0.2646E+01  0.1385E+02
  -0.860  0.3257E+01  0.1388E+02
  -0.850  0.1762E+01  0.1390E+02
  -0.840  0.1203E+01  0.1391E+02
  -0.830  0.2218E+01  0.1393E+02
  -0.820  0.2371E+01  0.1396E+02
  -0.810  0.2153E+01  0.1398E+02
  -0.800  0.5922E+00  0.1398E+02
  -0.790  0.4430E+00  0.1399E+02
  -0.780  0.2204E+01  0.1401E+02
  -0.770  0.2250E+01  0.1403E+02
  -0.760  0.2757E+01  0.1406E+02
  -0.750  0.4152E+01  0.1410E+02
  -0.740  0.1578E+01  0.1412E+02
  -0.730  0.2048E-01  0.1412E+02
  -0.720  0.1350E+01  0.1413E+02
  -0.710  0.2672E+01  0.1416E+02
  -0.700  0.2890E+01  0.1419E+02
  -0.690  0.2323E+01  0.1421E+02
  -0.680  0.2795E+01  0.1424E+02
  -0.670  0.3863E+01  0.1428E+02
  -0.660  0.3310E+01  0.1431E+02
  -0.650  0.3722E+01  0.1435E+02
  -0.640  0.5375E+01  0.1440E+02
  -0.630  0.5138E+01  0.1445E+02
  -0.620  0.1873E+01  0.1447E+02
  -0.610 -0.4956E+00  0.1446E+02
  -0.600 -0.1679E+00  0.1446E+02
  -0.590  0.1027E+01  0.1447E+02
  -0.580  0.2459E+01  0.1450E+02
  -0.570  0.1624E+01  0.1451E+02
  -0.560  0.1031E+01  0.1452E+02
  -0.550  0.1346E+01  0.1454E+02
  -0.540  0.1100E+01  0.1455E+02
  -0.530  0.2416E+00  0.1455E+02
  -0.520 -0.1441E+00  0.1455E+02
  -0.510  0.2261E+00  0.1455E+02
  -0.500  0.1622E+01  0.1457E+02
  -0.490  0.4797E+01  0.1462E+02
  -0.480  0.7809E+01  0.1469E+02
  -0.470  0.6512E+01  0.1476E+02
  -0.460  0.3817E+01  0.1480E+02
  -0.450  0.3940E+01  0.1484E+02
  -0.440  0.3568E+01  0.1487E+02
  -0.430  0.1659E+01  0.1489E+02
  -0.420  0.1827E+01  0.1491E+02
  -0.410  0.2449E+01  0.1493E+02
  -0.400  0.2206E+01  0.1495E+02
  -0.390  0.2637E+01  0.1498E+02
  -0.380  0.1452E+01  0.1500E+02
  -0.370  0.1080E+01  0.1501E+02
  -0.360  0.3039E+01  0.1504E+02
  -0.350  0.2929E+01  0.1507E+02
  -0.340  0.2662E+01  0.1509E+02
  -0.330  0.3233E+01  0.1512E+02
  -0.320  0.1858E+01  0.1514E+02
  -0.310  0.3866E+00  0.1515E+02
  -0.300  0.4131E+00  0.1515E+02
  -0.290  0.1130E+01  0.1516E+02
  -0.280  0.4277E+00  0.1517E+02
  -0.270 -0.1117E+00  0.1517E+02
  -0.260  0.3196E+00  0.1517E+02
  -0.250  0.1126E+01  0.1518E+02
  -0.240  0.8297E+00  0.1519E+02
  -0.230 -0.5955E-01  0.1519E+02
  -0.220 -0.6341E-01  0.1519E+02
  -0.210  0.4047E+00  0.1519E+02
  -0.200  0.1530E+01  0.1521E+02
  -0.190  0.1978E+01  0.1523E+02
  -0.180  0.7288E+00  0.1523E+02
  -0.170 -0.1745E+00  0.1523E+02
  -0.160 -0.2210E-01  0.1523E+02
  -0.150  0.5931E+00  0.1524E+02
  -0.140  0.1218E+01  0.1525E+02
  -0.130  0.4946E+00  0.1525E+02
  -0.120 -0.1432E+00  0.1525E+02
  -0.110 -0.6063E-01  0.1525E+02
  -0.100  0.2118E-01  0.1525E+02
  -0.090  0.3003E+00  0.1526E+02
  -0.080  0.1061E+01  0.1527E+02
  -0.070  0.1031E+01  0.1528E+02
  -0.060  0.5911E+00  0.1528E+02
  -0.050  0.1099E+01  0.1529E+02
  -0.040  0.4972E+00  0.1530E+02
  -0.030 -0.1288E+00  0.1530E+02
  -0.020  0.1300E+00  0.1530E+02
  -0.010  0.8881E+00  0.1531E+02
  -0.000  0.1116E+01  0.1532E+02
   0.010  0.1564E+00  0.1532E+02
   0.020 -0.1436E+00  0.1532E+02
   0.030 -0.2910E-01  0.1532E+02
   0.040  0.3960E-02  0.1532E+02
   0.050  0.1392E+00  0.1532E+02
   0.060  0.1210E+01  0.1533E+02
   0.070  0.3539E+01  0.1537E+02
   0.080  0.4087E+01  0.1541E+02
   0.090  0.3326E+01  0.1544E+02
   0.100  0.1578E+01  0.1546E+02
   0.110  0.4202E+00  0.1546E+02
   0.120  0.1284E+01  0.1547E+02
   0.130  0.1401E+01  0.1549E+02
   0.140  0.8219E+00  0.1550E+02
   0.150  0.4418E+00  0.1550E+02
   0.160  0.1854E+01  0.1552E+02
   0.170  0.2076E+01  0.1554E+02
   0.180  0.4350E+00  0.1554E+02
   0.190  0.8008E+00  0.1555E+02
   0.200  0.9201E+00  0.1556E+02
   0.210  0.2750E+00  0.1556E+02
   0.220  0.1023E+01  0.1558E+02
   0.230  0.1679E+01  0.1559E+02
   0.240  0.1305E+01  0.1560E+02
   0.250  0.8098E+00  0.1561E+02
   0.260  0.1438E+01  0.1563E+02
   0.270  0.1734E+01  0.1564E+02
   0.280  0.9702E+00  0.1565E+02
   0.290  0.9196E+00  0.1566E+02
   0.300  0.8273E+00  0.1567E+02
   0.310 -0.2090E-01  0.1567E+02
   0.320 -0.1163E+00  0.1567E+02
   0.330 -0.1475E-01  0.1567E+02
   0.340  0.3935E-01  0.1567E+02
   0.350  0.5325E+00  0.1568E+02
   0.360  0.2454E+01  0.1570E+02
   0.370  0.4120E+01  0.1574E+02
   0.380  0.3584E+01  0.1578E+02
   0.390  0.2720E+01  0.1580E+02
   0.400  0.1390E+01  0.1582E+02
   0.410  0.1686E+01  0.1584E+02
   0.420  0.2488E+01  0.1586E+02
   0.430  0.2328E+01  0.1588E+02
   0.440  0.1307E+01  0.1590E+02
   0.450  0.1305E+01  0.1591E+02
   0.460  0.2934E+01  0.1594E+02
   0.470  0.4625E+01  0.1599E+02
   0.480  0.3470E+01  0.1602E+02
   0.490  0.7200E+00  0.1603E+02
   0.500 -0.3633E+00  0.1602E+02
   0.510 -0.1123E+00  0.1602E+02
   0.520  0.5578E+00  0.1603E+02
   0.530  0.2608E+01  0.1605E+02
   0.540  0.4386E+01  0.1610E+02
   0.550  0.2460E+01  0.1612E+02
   0.560  0.1315E+01  0.1614E+02
   0.570  0.1875E+01  0.1615E+02
   0.580  0.1643E+01  0.1617E+02
   0.590  0.1652E+01  0.1619E+02
   0.600  0.1164E+01  0.1620E+02
   0.610  0.4630E+00  0.1620E+02
   0.620  0.1585E+01  0.1622E+02
   0.630  0.2217E+01  0.1624E+02
   0.640  0.3487E+00  0.1625E+02
   0.650 -0.1573E+00  0.1624E+02
   0.660  0.7809E+00  0.1625E+02
   0.670  0.1883E+01  0.1627E+02
   0.680  0.1937E+01  0.1629E+02
   0.690  0.2374E+01  0.1631E+02
   0.700  0.3942E+01  0.1635E+02
   0.710  0.3951E+01  0.1639E+02
   0.720  0.2675E+01  0.1642E+02
   0.730  0.6417E+00  0.1643E+02
   0.740  0.1287E+01  0.1644E+02
   0.750  0.3500E+01  0.1647E+02
   0.760  0.3605E+01  0.1651E+02
   0.770  0.1981E+01  0.1653E+02
   0.780  0.1313E+01  0.1654E+02
   0.790  0.3455E+01  0.1658E+02
   0.800  0.5311E+01  0.1663E+02
   0.810  0.3272E+01  0.1666E+02
   0.820  0.7205E+00  0.1667E+02
   0.830  0.2000E+01  0.1669E+02
   0.840  0.4160E+01  0.1673E+02
   0.850  0.2583E+01  0.1676E+02
   0.860  0.2003E+01  0.1678E+02
   0.870  0.3796E+01  0.1682E+02
   0.880  0.2326E+01  0.1684E+02
   0.890  0.1011E+01  0.1685E+02
   0.900  0.3351E+01  0.1688E+02
   0.910  0.6351E+01  0.1695E+02
   0.920  0.5957E+01  0.1701E+02
   0.930  0.4314E+01  0.1705E+02
   0.940  0.5595E+01  0.1710E+02
   0.950  0.6438E+01  0.1717E+02
   0.960  0.2773E+01  0.1720E+02
   0.970 -0.4443E-01  0.1720E+02
   0.980  0.1219E+01  0.1721E+02
   0.990  0.2786E+01  0.1724E+02
   1.000  0.2632E+01  0.1726E+02
   1.010  0.1398E+01  0.1728E+02
   1.020  0.1260E+01  0.1729E+02
   1.030  0.2764E+01  0.1732E+02
   1.040  0.3457E+01  0.1735E+02
   1.050  0.2896E+01  0.1738E+02
   1.060  0.1115E+01  0.1739E+02
   1.070  0.7134E+00  0.1740E+02
   1.080  0.2156E+01  0.1742E+02
   1.090  0.2823E+01  0.1745E+02
   1.100  0.4151E+01  0.1749E+02
   1.110  0.3144E+01  0.1752E+02
   1.120  0.6079E-02  0.1752E+02
   1.130 -0.3566E+00  0.1752E+02
   1.140  0.5224E+00  0.1752E+02
   1.150  0.1812E+01  0.1754E+02
   1.160  0.1937E+01  0.1756E+02
   1.170  0.9560E+00  0.1757E+02
   1.180  0.1079E+01  0.1758E+02
   1.190  0.1042E+01  0.1759E+02
   1.200  0.1072E+01  0.1760E+02
   1.210  0.4466E+00  0.1761E+02
   1.220 -0.1463E+00  0.1761E+02
   1.230 -0.6237E-01  0.1760E+02
   1.240  0.2245E-01  0.1760E+02
   1.250  0.3108E+00  0.1761E+02
   1.260  0.1069E+01  0.1762E+02
   1.270  0.9314E+00  0.1763E+02
   1.280 -0.8007E-02  0.1763E+02
   1.290 -0.7477E-01  0.1763E+02
   1.300  0.3851E+00  0.1763E+02
   1.310  0.1189E+01  0.1764E+02
   1.320  0.1373E+01  0.1766E+02
   1.330  0.2860E+01  0.1769E+02
   1.340  0.5489E+01  0.1774E+02
   1.350  0.4692E+01  0.1779E+02
   1.360  0.3367E+01  0.1782E+02
   1.370  0.3418E+01  0.1785E+02
   1.380  0.1739E+01  0.1787E+02
   1.390  0.1033E+01  0.1788E+02
   1.400  0.1784E+01  0.1790E+02
   1.410  0.3682E+01  0.1794E+02
   1.420  0.4495E+01  0.1798E+02
   1.430  0.2068E+01  0.1800E+02
   1.440  0.8883E+00  0.1801E+02
   1.450  0.1206E+01  0.1802E+02
   1.460  0.1540E+01  0.1804E+02
   1.470  0.2725E+01  0.1807E+02
   1.480  0.4482E+01  0.1811E+02
   1.490  0.4112E+01  0.1815E+02
   1.500  0.2641E+01  0.1818E+02
   1.510  0.4176E+01  0.1822E+02
   1.520  0.9211E+01  0.1831E+02
   1.530  0.1380E+02  0.1845E+02
   1.540  0.5628E+01  0.1851E+02
   1.550 -0.1491E+01  0.1849E+02
   1.560 -0.5552E+00  0.1849E+02
   1.570  0.8470E+00  0.1849E+02
   1.580  0.1099E+01  0.1851E+02
   1.590  0.1362E+00  0.1851E+02
   1.600 -0.1414E+00  0.1851E+02
   1.610 -0.2748E-01  0.1851E+02
   1.620 -0.1234E-02  0.1851E+02
   1.630  0.1827E-02  0.1851E+02
   1.640  0.5181E-01  0.1851E+02
   1.650  0.4712E+00  0.1851E+02
   1.660  0.1489E+01  0.1853E+02
   1.670  0.2624E+01  0.1855E+02
   1.680  0.4994E+01  0.1860E+02
   1.690  0.8128E+01  0.1868E+02
   1.700  0.7234E+01  0.1876E+02
   1.710  0.2278E+01  0.1878E+02
   1.720  0.4602E+00  0.1878E+02
   1.730  0.9365E+00  0.1879E+02
   1.740  0.9073E+00  0.1880E+02
   1.750  0.1116E+01  0.1881E+02
   1.760  0.8530E+00  0.1882E+02
   1.770  0.1083E+01  0.1883E+02
   1.780  0.9553E+00  0.1884E+02
   1.790  0.1077E+01  0.1885E+02
   1.800  0.1529E+01  0.1887E+02
   1.810  0.2278E+01  0.1889E+02
   1.820  0.2107E+01  0.1891E+02
   1.830  0.1383E+01  0.1893E+02
   1.840  0.1775E+01  0.1894E+02
   1.850  0.2955E+01  0.1897E+02
   1.860  0.5887E+01  0.1903E+02
   1.870  0.8077E+01  0.1911E+02
   1.880  0.5426E+01  0.1917E+02
   1.890  0.2355E+01  0.1919E+02
   1.900  0.1706E+01  0.1921E+02
   1.910  0.3981E+01  0.1925E+02
   1.920  0.1021E+02  0.1935E+02
   1.930  0.1111E+02  0.1946E+02
   1.940  0.4107E+01  0.1950E+02
   1.950  0.3756E+00  0.1950E+02
   1.960  0.1113E+01  0.1952E+02
   1.970  0.4190E+01  0.1956E+02
   1.980  0.3132E+01  0.1959E+02
   1.990  0.4192E+00  0.1959E+02
   2.000  0.1435E+01  0.1961E+02
   2.010  0.2871E+01  0.1964E+02
   2.020  0.3054E+01  0.1967E+02
   2.030  0.2615E+01  0.1969E+02
   2.040  0.2874E+01  0.1972E+02
   2.050  0.4915E+01  0.1977E+02
   2.060  0.6361E+01  0.1983E+02
   2.070  0.6355E+01  0.1990E+02
   2.080  0.5636E+01  0.1995E+02
   2.090  0.3679E+01  0.1999E+02
   2.100  0.1700E+01  0.2001E+02
   2.110  0.7227E+00  0.2002E+02
   2.120  0.1865E+01  0.2003E+02
   2.130  0.2210E+01  0.2006E+02
   2.140  0.2888E+01  0.2009E+02
   2.150  0.2883E+01  0.2011E+02
   2.160  0.1253E+01  0.2013E+02
   2.170  0.7414E+00  0.2013E+02
   2.180  0.5036E+00  0.2014E+02
   2.190  0.1868E+01  0.2016E+02
   2.200  0.3706E+01  0.2019E+02
   2.210  0.3715E+01  0.2023E+02
   2.220  0.3324E+01  0.2026E+02
   2.230  0.3184E+01  0.2030E+02
   2.240  0.2219E+01  0.2032E+02
   2.250  0.2390E+01  0.2034E+02
   2.260  0.1385E+01  0.2036E+02
   2.270  0.7368E+00  0.2036E+02
   2.280  0.2232E+01  0.2039E+02
   2.290  0.2624E+01  0.2041E+02
   2.300  0.3010E+01  0.2044E+02
   2.310  0.3744E+01  0.2048E+02
   2.320  0.2679E+01  0.2051E+02
   2.330  0.2059E+01  0.2053E+02
   2.340  0.1115E+01  0.2054E+02
   2.350  0.9381E+00  0.2055E+02
   2.360  0.7340E+00  0.2056E+02
   2.370  0.1382E+01  0.2057E+02
   2.380  0.2071E+01  0.2059E+02
   2.390  0.6833E+00  0.2060E+02
   2.400 -0.2824E-02  0.2060E+02
   2.410  0.1743E+01  0.2061E+02
   2.420  0.5003E+01  0.2066E+02
   2.430  0.4400E+01  0.2071E+02
   2.440  0.1461E+01  0.2072E+02
   2.450  0.5048E+00  0.2073E+02
   2.460  0.3023E-01  0.2073E+02
   2.470  0.7523E+00  0.2074E+02
   2.480  0.2441E+01  0.2076E+02
   2.490  0.4568E+01  0.2081E+02
   2.500  0.5643E+01  0.2086E+02
   2.510  0.6133E+01  0.2092E+02
   2.520  0.6606E+01  0.2099E+02
   2.530  0.5829E+01  0.2105E+02
   2.540  0.5512E+01  0.2110E+02
   2.550  0.5306E+01  0.2116E+02
   2.560  0.3259E+01  0.2119E+02
   2.570  0.1616E+01  0.2120E+02
   2.580  0.3996E+01  0.2124E+02
   2.590  0.5841E+01  0.2130E+02
   2.600  0.3139E+01  0.2133E+02
   2.610  0.1351E+01  0.2135E+02
   2.620  0.2035E+01  0.2137E+02
   2.630  0.3524E+01  0.2140E+02
   2.640  0.3899E+01  0.2144E+02
   2.650  0.2937E+01  0.2147E+02
   2.660  0.1747E+01  0.2149E+02
   2.670  0.3498E+01  0.2152E+02
   2.680  0.6270E+01  0.2159E+02
   2.690  0.5781E+01  0.2165E+02
   2.700  0.3046E+01  0.2168E+02
   2.710  0.2434E+01  0.2170E+02
   2.720  0.3898E+01  0.2174E+02
   2.730  0.3644E+01  0.2178E+02
   2.740  0.1786E+01  0.2179E+02
   2.750  0.1820E+01  0.2181E+02
   2.760  0.2255E+01  0.2183E+02
   2.770  0.2758E+01  0.2186E+02
   2.780  0.3293E+01  0.2189E+02
   2.790  0.2200E+01  0.2192E+02
   2.800  0.2946E+01  0.2195E+02
   2.810  0.2833E+01  0.2197E+02
   2.820  0.3176E+01  0.2201E+02
   2.830  0.3328E+01  0.2204E+02
   2.840  0.1460E+01  0.2205E+02
   2.850  0.1354E+01  0.2207E+02
   2.860  0.2007E+01  0.2209E+02
   2.870  0.1015E+01  0.2210E+02
   2.880  0.2659E+01  0.2212E+02
   2.890  0.4701E+01  0.2217E+02
   2.900  0.3300E+01  0.2220E+02
   2.910  0.2550E+01  0.2223E+02
   2.920  0.1730E+01  0.2225E+02
   2.930  0.8655E+00  0.2226E+02
   2.940  0.2273E+01  0.2228E+02
   2.950  0.2722E+01  0.2231E+02
   2.960  0.3449E+01  0.2234E+02
   2.970  0.3240E+01  0.2237E+02
   2.980  0.2826E+01  0.2240E+02
   2.990  0.3737E+01  0.2244E+02
   3.000  0.3983E+01  0.2248E+02
   3.010  0.3488E+01  0.2251E+02
   3.020  0.3139E+01  0.2254E+02
   3.030  0.3013E+01  0.2257E+02
   3.040  0.4365E+01  0.2262E+02
   3.050  0.5575E+01  0.2267E+02
   3.060  0.5655E+01  0.2273E+02
   3.070  0.4265E+01  0.2277E+02
   3.080  0.2577E+01  0.2280E+02
   3.090  0.1519E+01  0.2281E+02
   3.100  0.3713E+00  0.2282E+02
   3.110  0.9855E+00  0.2283E+02
   3.120  0.4171E+01  0.2287E+02
   3.130  0.4550E+01  0.2291E+02
   3.140  0.2885E+01  0.2294E+02
   3.150  0.3351E+01  0.2298E+02
   3.160  0.1780E+01  0.2299E+02
   3.170  0.5243E+00  0.2300E+02
   3.180  0.9869E+00  0.2301E+02
   3.190  0.6496E+00  0.2302E+02
   3.200  0.9203E+00  0.2303E+02
   3.210  0.1013E+01  0.2304E+02
   3.220  0.7321E+00  0.2304E+02
   3.230  0.1185E+01  0.2305E+02
   3.240  0.9756E+00  0.2306E+02
   3.250  0.1064E+01  0.2308E+02
   3.260  0.4267E+00  0.2308E+02
   3.270  0.3146E+00  0.2308E+02
   3.280  0.1135E+01  0.2309E+02
   3.290  0.7206E+00  0.2310E+02
   3.300  0.2599E+00  0.2310E+02
   3.310  0.1042E+01  0.2311E+02
   3.320  0.8314E+00  0.2312E+02
   3.330 -0.5665E-01  0.2312E+02
   3.340 -0.9490E-01  0.2312E+02
   3.350  0.1332E+00  0.2312E+02
   3.360  0.7850E+00  0.2313E+02
   3.370  0.1179E+01  0.2314E+02
   3.380  0.2721E+00  0.2314E+02
   3.390 -0.1409E+00  0.2314E+02
   3.400  0.1293E+00  0.2314E+02
   3.410  0.8386E+00  0.2315E+02
   3.420  0.1151E+01  0.2316E+02
   3.430  0.2110E+00  0.2317E+02
   3.440 -0.1479E+00  0.2317E+02
   3.450 -0.1970E-01  0.2316E+02
   3.460  0.2045E+00  0.2317E+02
   3.470  0.9331E+00  0.2318E+02
   3.480  0.1323E+01  0.2319E+02
   3.490  0.1084E+01  0.2320E+02
   3.500  0.9263E+00  0.2321E+02
   3.510  0.7065E-01  0.2321E+02
   3.520 -0.1376E+00  0.2321E+02
   3.530 -0.2434E-01  0.2321E+02
   3.540 -0.1043E-02  0.2321E+02
   3.550 -0.1307E-04  0.2321E+02
   3.560  0.6385E-04  0.2321E+02
   3.570  0.5472E-02  0.2321E+02
   3.580  0.1543E+00  0.2321E+02
   3.590  0.1424E+01  0.2322E+02
   3.600  0.4363E+01  0.2327E+02
   3.610  0.4931E+01  0.2332E+02
   3.620  0.2617E+01  0.2334E+02
   3.630  0.8822E+00  0.2335E+02
   3.640  0.1588E+01  0.2337E+02
   3.650  0.2676E+01  0.2340E+02
   3.660  0.1565E+01  0.2341E+02
   3.670  0.1060E+00  0.2341E+02
   3.680  0.1316E+01  0.2343E+02
   3.690  0.2365E+01  0.2345E+02
   3.700  0.8526E+00  0.2346E+02
   3.710  0.7018E+00  0.2346E+02
   3.720  0.9338E+00  0.2347E+02
   3.730  0.1033E+00  0.2347E+02
   3.740  0.3606E+00  0.2348E+02
   3.750  0.1176E+01  0.2349E+02
   3.760  0.6543E+00  0.2350E+02
   3.770 -0.1105E+00  0.2350E+02
   3.780  0.6353E-01  0.2350E+02
   3.790  0.1158E+01  0.2351E+02
   3.800  0.3352E+01  0.2354E+02
   3.810  0.3454E+01  0.2358E+02
   3.820  0.1590E+01  0.2359E+02
   3.830  0.1014E+01  0.2360E+02
   3.840  0.4965E+00  0.2361E+02
   3.850 -0.1386E+00  0.2361E+02
   3.860 -0.8277E-01  0.2360E+02
   3.870  0.5080E-01  0.2361E+02
   3.880  0.5091E+00  0.2361E+02
   3.890  0.1472E+01  0.2362E+02
   3.900  0.1739E+01  0.2364E+02
   3.910  0.1428E+01  0.2366E+02
   3.920  0.1812E+01  0.2367E+02
   3.930  0.1801E+01  0.2369E+02
   3.940  0.2750E+00  0.2370E+02
   3.950 -0.1403E+00  0.2369E+02
   3.960  0.5908E+00  0.2370E+02
   3.970  0.1225E+01  0.2371E+02
   3.980  0.6422E+00  0.2372E+02
   3.990  0.1028E+01  0.2373E+02
   4.000  0.2211E+01  0.2375E+02
   4.010  0.1852E+01  0.2377E+02
   4.020  0.2784E+01  0.2380E+02
   4.030  0.4383E+01  0.2384E+02
   4.040  0.3566E+01  0.2388E+02
   4.050  0.1981E+01  0.2390E+02
   4.060  0.8828E+00  0.2391E+02
   4.070  0.8123E+00  0.2391E+02
   4.080  0.4522E+00  0.2392E+02
   4.090  0.1413E+01  0.2393E+02
   4.100  0.2264E+01  0.2395E+02
   4.110  0.1798E+01  0.2397E+02
   4.120  0.1398E+01  0.2399E+02
   4.130  0.1159E+01  0.2400E+02
   4.140  0.3920E+00  0.2400E+02
   4.150 -0.1114E+00  0.2400E+02
   4.160  0.5243E+00  0.2401E+02
   4.170  0.2558E+01  0.2403E+02
   4.180  0.4068E+01  0.2407E+02
   4.190  0.2160E+01  0.2409E+02
   4.200  0.8399E+00  0.2410E+02
   4.210  0.2858E+01  0.2413E+02
   4.220  0.3765E+01  0.2417E+02
   4.230  0.2602E+01  0.2419E+02
   4.240  0.1852E+01  0.2421E+02
   4.250  0.2487E+01  0.2424E+02
   4.260  0.2063E+01  0.2426E+02
   4.270  0.7498E+00  0.2427E+02
   4.280  0.6548E-01  0.2427E+02
   4.290  0.1054E+01  0.2428E+02
   4.300  0.2975E+01  0.2431E+02
   4.310  0.6044E+01  0.2437E+02
   4.320  0.1449E+02  0.2451E+02
   4.330  0.1518E+02  0.2466E+02
   4.340  0.6415E+01  0.2473E+02
   4.350  0.3349E+01  0.2476E+02
   4.360  0.5262E+01  0.2481E+02
   4.370  0.4472E+01  0.2486E+02
   4.380  0.3028E+01  0.2489E+02
   4.390  0.2882E+01  0.2492E+02
   4.400  0.2940E+01  0.2495E+02
   4.410  0.3082E+01  0.2498E+02
   4.420  0.3842E+01  0.2502E+02
   4.430  0.3623E+01  0.2505E+02
   4.440  0.1170E+01  0.2507E+02
   4.450  0.1337E+01  0.2508E+02
   4.460  0.2113E+01  0.2510E+02
   4.470  0.6565E+00  0.2511E+02
   4.480  0.8544E+00  0.2511E+02
   4.490  0.1201E+01  0.2513E+02
   4.500  0.1754E+01  0.2514E+02
   4.510  0.2276E+01  0.2517E+02
   4.520  0.1382E+01  0.2518E+02
   4.530  0.2140E+01  0.2520E+02
   4.540  0.2302E+01  0.2523E+02
   4.550  0.1941E+01  0.2524E+02
   4.560  0.2193E+01  0.2527E+02
   4.570  0.1167E+01  0.2528E+02
   4.580 -0.1773E+00  0.2528E+02
   4.590 -0.1685E+00  0.2527E+02
   4.600 -0.1515E-01  0.2527E+02
   4.610  0.1152E+00  0.2528E+02
   4.620  0.9584E+00  0.2529E+02
   4.630  0.2364E+01  0.2531E+02
   4.640  0.1352E+01  0.2532E+02
   4.650 -0.7948E-01  0.2532E+02
   4.660  0.9582E+00  0.2533E+02
   4.670  0.3148E+01  0.2536E+02
   4.680  0.2604E+01  0.2539E+02
   4.690  0.7109E+00  0.2540E+02
   4.700  0.1811E+01  0.2541E+02
   4.710  0.2230E+01  0.2544E+02
   4.720  0.3020E+01  0.2547E+02
   4.730  0.6842E+01  0.2554E+02
   4.740  0.8787E+01  0.2562E+02
   4.750  0.7993E+01  0.2570E+02
   4.760  0.8037E+01  0.2578E+02
   4.770  0.1188E+02  0.2590E+02
   4.780  0.1001E+02  0.2600E+02
   4.790  0.2877E+01  0.2603E+02
   4.800  0.3170E+01  0.2606E+02
   4.810  0.4675E+01  0.2611E+02
   4.820  0.3997E+01  0.2615E+02
   4.830  0.2737E+01  0.2618E+02
   4.840  0.2727E+01  0.2620E+02
   4.850  0.2344E+01  0.2623E+02
   4.860  0.1641E+01  0.2624E+02
   4.870  0.2228E+01  0.2627E+02
   4.880  0.2328E+01  0.2629E+02
   4.890  0.2088E+01  0.2631E+02
   4.900  0.3958E+01  0.2635E+02
   4.910  0.3325E+01  0.2638E+02
   4.920  0.2378E+01  0.2641E+02
   4.930  0.3458E+01  0.2644E+02
   4.940  0.2481E+01  0.2647E+02
   4.950  0.1794E+01  0.2648E+02
   4.960  0.2044E+01  0.2650E+02
   4.970  0.3758E+01  0.2654E+02
   4.980  0.3792E+01  0.2658E+02
   4.990  0.1959E+01  0.2660E+02
   5.000  0.1073E+01  0.2661E+02
   5.010  0.8839E+00  0.2662E+02
   5.020  0.8617E+00  0.2663E+02
   5.030  0.1332E+01  0.2664E+02
   5.040  0.1844E+01  0.2666E+02
   5.050  0.3224E+01  0.2669E+02
   5.060  0.4446E+01  0.2674E+02
   5.070  0.5418E+01  0.2679E+02
   5.080  0.4235E+01  0.2683E+02
   5.090  0.1603E+01  0.2685E+02
   5.100  0.1377E+01  0.2686E+02
   5.110  0.3478E+01  0.2690E+02
   5.120  0.5649E+01  0.2695E+02
   5.130  0.6630E+01  0.2702E+02
   5.140  0.5235E+01  0.2707E+02
   5.150  0.4269E+01  0.2712E+02
   5.160  0.4385E+01  0.2716E+02
   5.170  0.2058E+01  0.2718E+02
   5.180  0.2086E+01  0.2720E+02
   5.190  0.3891E+01  0.2724E+02
   5.200  0.3460E+01  0.2727E+02
   5.210  0.1369E+01  0.2729E+02
   5.220  0.1503E+01  0.2730E+02
   5.230  0.2862E+01  0.2733E+02
   5.240  0.3302E+01  0.2736E+02
   5.250  0.4602E+01  0.2741E+02
   5.260  0.6502E+01  0.2748E+02
   5.270  0.5132E+01  0.2753E+02
   5.280  0.6745E+01  0.2759E+02
   5.290  0.8206E+01  0.2768E+02
   5.300  0.5993E+01  0.2774E+02
   5.310  0.4936E+01  0.2779E+02
   5.320  0.4214E+01  0.2783E+02
   5.330  0.4892E+01  0.2788E+02
   5.340  0.7201E+01  0.2795E+02
   5.350  0.6015E+01  0.2801E+02
   5.360  0.2339E+01  0.2803E+02
   5.370  0.1007E+01  0.2804E+02
   5.380  0.2058E+01  0.2806E+02
   5.390  0.2509E+01  0.2809E+02
   5.400  0.2325E+01  0.2811E+02
   5.410  0.3414E+01  0.2815E+02
   5.420  0.4565E+01  0.2819E+02
   5.430  0.3921E+01  0.2823E+02
   5.440  0.2786E+01  0.2826E+02
   5.450  0.4025E+01  0.2830E+02
   5.460  0.7158E+01  0.2837E+02
   5.470  0.6508E+01  0.2844E+02
   5.480  0.5242E+01  0.2849E+02
   5.490  0.5309E+01  0.2854E+02
   5.500  0.2413E+01  0.2856E+02
   5.510  0.2849E+01  0.2859E+02
   5.520  0.5692E+01  0.2865E+02
   5.530  0.4396E+01  0.2869E+02
   5.540  0.3643E+01  0.2873E+02
   5.550  0.6449E+01  0.2879E+02
   5.560  0.6413E+01  0.2886E+02
   5.570  0.4299E+01  0.2890E+02
   5.580  0.2508E+01  0.2893E+02
   5.590  0.1907E+00  0.2893E+02
   5.600  0.2823E+00  0.2893E+02
   5.610  0.2027E+01  0.2895E+02
   5.620  0.2999E+01  0.2898E+02
   5.630  0.3644E+01  0.2902E+02
   5.640  0.4397E+01  0.2906E+02
   5.650  0.2623E+01  0.2909E+02
   5.660  0.1495E+01  0.2910E+02
   5.670  0.3433E+01  0.2914E+02
   5.680  0.6518E+01  0.2920E+02
   5.690  0.7798E+01  0.2928E+02
   5.700  0.5564E+01  0.2934E+02
   5.710  0.3930E+01  0.2938E+02
   5.720  0.4551E+01  0.2942E+02
   5.730  0.5115E+01  0.2947E+02
   5.740  0.4189E+01  0.2951E+02
   5.750  0.2946E+01  0.2954E+02
   5.760  0.2825E+01  0.2957E+02
   5.770  0.4294E+01  0.2962E+02
   5.780  0.6059E+01  0.2968E+02
   5.790  0.5456E+01  0.2973E+02
   5.800  0.3412E+01  0.2976E+02
   5.810  0.2375E+01  0.2979E+02
   5.820  0.3809E+01  0.2983E+02
   5.830  0.5641E+01  0.2988E+02
   5.840  0.4399E+01  0.2993E+02
   5.850  0.5598E+01  0.2998E+02
   5.860  0.9134E+01  0.3007E+02
   5.870  0.7245E+01  0.3015E+02
   5.880  0.2954E+01  0.3018E+02
   5.890  0.4009E+01  0.3022E+02
   5.900  0.5867E+01  0.3027E+02
   5.910  0.6320E+01  0.3034E+02
   5.920  0.5012E+01  0.3039E+02
   5.930  0.2793E+01  0.3042E+02
   5.940  0.2477E+01  0.3044E+02
   5.950  0.3058E+01  0.3047E+02
   5.960  0.3652E+01  0.3051E+02
   5.970  0.2939E+01  0.3054E+02
   5.980  0.2067E+01  0.3056E+02
   5.990  0.1893E+01  0.3058E+02
   6.000  0.1540E+01  0.3059E+02
   6.010  0.1058E+01  0.3060E+02
   6.020  0.2214E+01  0.3063E+02
   6.030  0.5297E+01  0.3068E+02
   6.040  0.7997E+01  0.3076E+02
   6.050  0.7259E+01  0.3083E+02
   6.060  0.6507E+01  0.3090E+02
   6.070  0.5820E+01  0.3095E+02
   6.080  0.5982E+01  0.3101E+02
   6.090  0.7915E+01  0.3109E+02
   6.100  0.8734E+01  0.3118E+02
   6.110  0.7211E+01  0.3125E+02
   6.120  0.4752E+01  0.3130E+02
   6.130  0.1603E+01  0.3132E+02
   6.140  0.2185E+01  0.3134E+02
   6.150  0.3936E+01  0.3138E+02
   6.160  0.4651E+01  0.3142E+02
   6.170  0.4509E+01  0.3147E+02
   6.180  0.3132E+01  0.3150E+02
   6.190  0.2752E+01  0.3153E+02
   6.200  0.3063E+01  0.3156E+02
   6.210  0.4015E+01  0.3160E+02
   6.220  0.5141E+01  0.3165E+02
   6.230  0.5690E+01  0.3171E+02
   6.240  0.8180E+01  0.3179E+02
   6.250  0.6556E+01  0.3185E+02
   6.260  0.2829E+01  0.3188E+02
   6.270  0.2483E+01  0.3191E+02
   6.280  0.9168E+00  0.3192E+02
   6.290 -0.2002E+00  0.3191E+02
   6.300  0.2328E+00  0.3192E+02
   6.310  0.1742E+01  0.3193E+02
   6.320  0.2534E+01  0.3196E+02
   6.330  0.1566E+01  0.3198E+02
   6.340  0.9308E+00  0.3198E+02
   6.350  0.1424E+01  0.3200E+02
   6.360  0.2720E+01  0.3203E+02
   6.370  0.2529E+01  0.3205E+02
   6.380  0.1323E+01  0.3206E+02
   6.390  0.4159E+00  0.3207E+02
   6.400 -0.6115E-01  0.3207E+02
   6.410  0.8084E+00  0.3208E+02
   6.420  0.2413E+01  0.3210E+02
   6.430  0.2200E+01  0.3212E+02
   6.440  0.2481E+01  0.3215E+02
   6.450  0.3380E+01  0.3218E+02
   6.460  0.2051E+01  0.3220E+02
   6.470  0.2980E+00  0.3220E+02
   6.480  0.1161E+01  0.3222E+02
   6.490  0.2599E+01  0.3224E+02
   6.500  0.1942E+01  0.3226E+02
   6.510  0.1299E+01  0.3227E+02
   6.520  0.1860E+01  0.3229E+02
   6.530  0.1923E+01  0.3231E+02
   6.540  0.1188E+01  0.3232E+02
   6.550  0.7456E+00  0.3233E+02
   6.560 -0.2105E-01  0.3233E+02
   6.570  0.1183E+00  0.3233E+02
   6.580  0.1420E+01  0.3235E+02
   6.590  0.2425E+01  0.3237E+02
   6.600  0.9550E+00  0.3238E+02
   6.610  0.8458E+00  0.3239E+02
   6.620  0.2308E+01  0.3241E+02
   6.630  0.3600E+01  0.3245E+02
   6.640  0.2401E+01  0.3247E+02
   6.650  0.1455E+01  0.3249E+02
   6.660  0.2321E+01  0.3251E+02
   6.670  0.2215E+01  0.3253E+02
   6.680  0.1942E+01  0.3255E+02
   6.690  0.7551E+00  0.3256E+02
   6.700  0.2239E+01  0.3258E+02
   6.710  0.3505E+01  0.3262E+02
   6.720  0.1750E+01  0.3263E+02
   6.730  0.5994E+00  0.3264E+02
   6.740 -0.2645E-01  0.3264E+02
   6.750  0.4111E+00  0.3264E+02
   6.760  0.1703E+01  0.3266E+02
   6.770  0.1907E+01  0.3268E+02
   6.780  0.8682E+00  0.3269E+02
   6.790  0.1847E+01  0.3271E+02
   6.800  0.3720E+01  0.3274E+02
   6.810  0.3607E+01  0.3278E+02
   6.820  0.4873E+01  0.3283E+02
   6.830  0.4626E+01  0.3288E+02
   6.840  0.2158E+01  0.3290E+02
   6.850  0.1065E+01  0.3291E+02
   6.860  0.2003E+01  0.3293E+02
   6.870  0.3259E+01  0.3296E+02
   6.880  0.1601E+01  0.3298E+02
   6.890  0.1556E+01  0.3299E+02
   6.900  0.4104E+01  0.3303E+02
   6.910  0.4094E+01  0.3307E+02
   6.920  0.1132E+01  0.3308E+02
   6.930  0.2317E+00  0.3309E+02
   6.940  0.1046E+01  0.3310E+02
   6.950  0.5929E+00  0.3310E+02
   6.960  0.1348E+01  0.3312E+02
   6.970  0.4131E+01  0.3316E+02
   6.980  0.4841E+01  0.3321E+02
   6.990  0.1006E+01  0.3322E+02
   7.000 -0.6161E+00  0.3321E+02
   7.010  0.5023E-01  0.3321E+02
   7.020  0.1201E+01  0.3322E+02
   7.030  0.2755E+01  0.3325E+02
   7.040  0.2953E+01  0.3328E+02
   7.050  0.2789E+01  0.3331E+02
   7.060  0.4439E+01  0.3335E+02
   7.070  0.3361E+01  0.3339E+02
   7.080  0.3824E+00  0.3339E+02
   7.090 -0.4059E+00  0.3339E+02
   7.100 -0.7195E-01  0.3339E+02
   7.110  0.5470E+00  0.3339E+02
   7.120  0.2071E+01  0.3341E+02
   7.130  0.2390E+01  0.3344E+02
   7.140  0.2288E+01  0.3346E+02
   7.150  0.3461E+01  0.3349E+02
   7.160  0.2532E+01  0.3352E+02
   7.170  0.2007E+01  0.3354E+02
   7.180  0.7332E+00  0.3355E+02
   7.190  0.7089E+00  0.3355E+02
   7.200  0.9087E+00  0.3356E+02
   7.210  0.8497E-01  0.3356E+02
   7.220  0.3849E+00  0.3357E+02
   7.230  0.1512E+01  0.3358E+02
   7.240  0.2493E+01  0.3361E+02
   7.250  0.3148E+01  0.3364E+02
   7.260  0.1661E+01  0.3365E+02
   7.270  0.6483E+00  0.3366E+02
   7.280  0.1117E+01  0.3367E+02
   7.290  0.1045E+01  0.3368E+02
   7.300  0.9989E+00  0.3369E+02
   7.310  0.3062E+00  0.3370E+02
   7.320  0.9488E+00  0.3371E+02
   7.330  0.2535E+01  0.3373E+02
   7.340  0.2020E+01  0.3375E+02
   7.350  0.1512E+01  0.3377E+02
   7.360  0.1622E+01  0.3378E+02
   7.370  0.1448E+01  0.3380E+02
   7.380  0.1228E+01  0.3381E+02
   7.390  0.1149E+01  0.3382E+02
   7.400  0.9634E+00  0.3383E+02
   7.410  0.1160E+01  0.3384E+02
   7.420  0.1815E+01  0.3386E+02
   7.430  0.1994E+01  0.3388E+02
   7.440  0.2238E+01  0.3390E+02
   7.450  0.2002E+01  0.3392E+02
   7.460  0.1225E+01  0.3393E+02
   7.470  0.2403E+00  0.3394E+02
   7.480  0.3546E-02  0.3394E+02
   7.490  0.8270E+00  0.3394E+02
   7.500  0.1145E+01  0.3396E+02
   7.510  0.5120E+00  0.3396E+02
   7.520  0.1466E+01  0.3398E+02
   7.530  0.2562E+01  0.3400E+02
   7.540  0.1971E+01  0.3402E+02
   7.550  0.1739E+01  0.3404E+02
   7.560  0.1918E+01  0.3406E+02
   7.570  0.2172E+01  0.3408E+02
   7.580  0.1198E+01  0.3409E+02
   7.590  0.4146E+00  0.3410E+02
   7.600  0.1900E+01  0.3411E+02
   7.610  0.1938E+01  0.3413E+02
   7.620  0.4344E-01  0.3413E+02
   7.630 -0.2465E+00  0.3413E+02
   7.640 -0.3645E-01  0.3413E+02
   7.650  0.7660E-02  0.3413E+02
   7.660  0.2137E+00  0.3413E+02
   7.670  0.1633E+01  0.3415E+02
   7.680  0.3926E+01  0.3419E+02
   7.690  0.2897E+01  0.3422E+02
   7.700  0.5280E+00  0.3422E+02
   7.710 -0.8411E-01  0.3422E+02
   7.720  0.7307E+00  0.3423E+02
   7.730  0.1144E+01  0.3424E+02
   7.740  0.4482E+00  0.3425E+02
   7.750  0.1130E+01  0.3426E+02
   7.760  0.2486E+01  0.3428E+02
   7.770  0.2289E+01  0.3431E+02
   7.780  0.7179E+00  0.3431E+02
   7.790  0.6847E+00  0.3432E+02
   7.800  0.2602E+01  0.3435E+02
   7.810  0.2868E+01  0.3437E+02
   7.820  0.2333E+01  0.3440E+02
   7.830  0.1998E+01  0.3442E+02
   7.840  0.3862E+00  0.3442E+02
   7.850 -0.2488E+00  0.3442E+02
   7.860  0.2776E+00  0.3442E+02
   7.870  0.1140E+01  0.3443E+02
   7.880  0.1319E+01  0.3445E+02
   7.890  0.2406E+01  0.3447E+02
   7.900  0.4623E+01  0.3452E+02
   7.910  0.4398E+01  0.3456E+02
   7.920  0.3394E+01  0.3459E+02
   7.930  0.1407E+01  0.3461E+02
   7.940  0.8044E+00  0.3462E+02
   7.950  0.1057E+01  0.3463E+02
   7.960  0.2617E+01  0.3465E+02
   7.970  0.2748E+01  0.3468E+02
   7.980  0.9633E+00  0.3469E+02
   7.990  0.8964E+00  0.3470E+02
   8.000  0.9060E+00  0.3471E+02
   8.010  0.1121E+01  0.3472E+02
   8.020  0.2227E+01  0.3474E+02
   8.030  0.3019E+01  0.3477E+02
   8.040  0.2207E+01  0.3479E+02
   8.050  0.7065E+00  0.3480E+02
   8.060  0.2067E+01  0.3482E+02
   8.070  0.3071E+01  0.3485E+02
   8.080  0.1000E+01  0.3486E+02
   8.090  0.1717E+00  0.3486E+02
   8.100  0.1422E+01  0.3488E+02
   8.110  0.1860E+01  0.3490E+02
   8.120  0.1135E+01  0.3491E+02
   8.130  0.1016E+01  0.3492E+02
   8.140  0.7312E+00  0.3493E+02
   8.150  0.6910E+00  0.3493E+02
   8.160  0.2443E+01  0.3496E+02
   8.170  0.2661E+01  0.3498E+02
   8.180  0.1010E+01  0.3499E+02
   8.190  0.6582E+00  0.3500E+02
   8.200  0.1781E+01  0.3502E+02
   8.210  0.3863E+01  0.3506E+02
   8.220  0.5643E+01  0.3511E+02
   8.230  0.3055E+01  0.3514E+02
   8.240  0.5293E+00  0.3515E+02
   8.250  0.5578E+00  0.3515E+02
   8.260  0.1735E+01  0.3517E+02
   8.270  0.2970E+01  0.3520E+02
   8.280  0.3367E+01  0.3524E+02
   8.290  0.1683E+01  0.3525E+02
   8.300  0.3683E+00  0.3526E+02
   8.310  0.1240E+00  0.3526E+02
   8.320  0.1053E+01  0.3527E+02
   8.330  0.1561E+01  0.3528E+02
   8.340  0.2176E+01  0.3531E+02
   8.350  0.2245E+01  0.3533E+02
   8.360  0.2299E+01  0.3535E+02
   8.370  0.3235E+01  0.3538E+02
   8.380  0.2200E+01  0.3541E+02
   8.390  0.1920E+01  0.3542E+02
   8.400  0.1567E+01  0.3544E+02
   8.410  0.2539E+01  0.3547E+02
   8.420  0.3038E+01  0.3550E+02
   8.430  0.1374E+01  0.3551E+02
   8.440  0.2955E+01  0.3554E+02
   8.450  0.4413E+01  0.3558E+02
   8.460  0.3109E+01  0.3561E+02
   8.470  0.2460E+01  0.3564E+02
   8.480  0.3971E+01  0.3568E+02
   8.490  0.4380E+01  0.3572E+02
   8.500  0.1785E+01  0.3574E+02
   8.510  0.7234E+00  0.3575E+02
   8.520  0.9972E+00  0.3576E+02
   8.530  0.7539E+00  0.3576E+02
   8.540  0.2034E+01  0.3579E+02
   8.550  0.4498E+01  0.3583E+02
   8.560  0.3704E+01  0.3587E+02
   8.570  0.1765E+01  0.3588E+02
   8.580  0.2511E+01  0.3591E+02
   8.590  0.3922E+01  0.3595E+02
   8.600  0.5168E+01  0.3600E+02
   8.610  0.5326E+01  0.3605E+02
   8.620  0.7434E+01  0.3613E+02
   8.630  0.6128E+01  0.3619E+02
   8.640  0.1859E+01  0.3621E+02
   8.650  0.6157E+00  0.3621E+02
   8.660  0.2941E+01  0.3624E+02
   8.670  0.3127E+01  0.3628E+02
   8.680  0.2567E+01  0.3630E+02
   8.690  0.3199E+01  0.3633E+02
   8.700  0.3103E+01  0.3636E+02
   8.710  0.1466E+01  0.3638E+02
   8.720  0.1275E+00  0.3638E+02
   8.730  0.1735E+01  0.3640E+02
   8.740  0.3370E+01  0.3643E+02
   8.750  0.1415E+01  0.3645E+02
   8.760  0.9491E-01  0.3645E+02
   8.770  0.1948E+01  0.3647E+02
   8.780  0.4947E+01  0.3651E+02
   8.790  0.7364E+01  0.3659E+02
   8.800  0.5295E+01  0.3664E+02
   8.810  0.1511E+01  0.3666E+02
   8.820  0.1102E+01  0.3667E+02
   8.830  0.1724E+01  0.3668E+02
   8.840  0.2306E+01  0.3671E+02
   8.850  0.1877E+01  0.3673E+02
   8.860  0.1572E+01  0.3674E+02
   8.870  0.3191E+01  0.3677E+02
   8.880  0.3856E+01  0.3681E+02
   8.890  0.3177E+01  0.3684E+02
   8.900  0.1667E+01  0.3686E+02
   8.910  0.6650E+00  0.3687E+02
   8.920  0.1991E+01  0.3689E+02
   8.930  0.2833E+01  0.3692E+02
   8.940  0.1141E+01  0.3693E+02
   8.950 -0.8558E-01  0.3693E+02
   8.960  0.9811E+00  0.3694E+02
   8.970  0.2264E+01  0.3696E+02
   8.980  0.1133E+01  0.3697E+02
   8.990 -0.1275E+00  0.3697E+02
   9.000  0.4982E+00  0.3697E+02
   9.010  0.2048E+01  0.3699E+02
   9.020  0.1892E+01  0.3701E+02
   9.030  0.6530E+00  0.3702E+02
   9.040  0.1570E+01  0.3704E+02
   9.050  0.1823E+01  0.3705E+02
   9.060  0.4950E+00  0.3706E+02
   9.070  0.5755E+00  0.3706E+02
   9.080  0.1810E+01  0.3708E+02
   9.090  0.1600E+01  0.3710E+02
   9.100  0.3957E+00  0.3710E+02
   9.110  0.6330E+00  0.3711E+02
   9.120  0.1726E+01  0.3713E+02
   9.130  0.1554E+01  0.3714E+02
   9.140  0.6841E+00  0.3715E+02
   9.150  0.9270E+00  0.3716E+02
   9.160  0.1200E+01  0.3717E+02
   9.170  0.1113E+01  0.3718E+02
   9.180  0.1079E+01  0.3719E+02
   9.190  0.1027E+01  0.3720E+02
   9.200  0.9080E+00  0.3721E+02
   9.210  0.6217E+00  0.3722E+02
   9.220  0.1193E+01  0.3723E+02
   9.230  0.1043E+01  0.3724E+02
   9.240  0.1079E+01  0.3725E+02
   9.250  0.5766E+00  0.3726E+02
   9.260  0.6706E+00  0.3726E+02
   9.270  0.1103E+01  0.3727E+02
   9.280  0.2300E+00  0.3728E+02
   9.290 -0.1220E+00  0.3728E+02
   9.300  0.2984E+00  0.3728E+02
   9.310  0.1395E+01  0.3729E+02
   9.320  0.2586E+01  0.3732E+02
   9.330  0.3515E+01  0.3735E+02
   9.340  0.3084E+01  0.3738E+02
   9.350  0.9166E+00  0.3739E+02
   9.360  0.8446E+00  0.3740E+02
   9.370  0.1835E+01  0.3742E+02
   9.380  0.2544E+01  0.3745E+02
   9.390  0.1976E+01  0.3747E+02
   9.400  0.9985E+00  0.3748E+02
   9.410  0.1229E+01  0.3749E+02
   9.420  0.4175E+01  0.3753E+02
   9.430  0.6326E+01  0.3759E+02
   9.440  0.4402E+01  0.3764E+02
   9.450  0.3155E+01  0.3767E+02
   9.460  0.2499E+01  0.3769E+02
   9.470  0.1032E+01  0.3770E+02
   9.480  0.2579E+01  0.3773E+02
   9.490  0.5118E+01  0.3778E+02
   9.500  0.3613E+01  0.3782E+02
   9.510  0.1979E+01  0.3784E+02
   9.520  0.1471E+01  0.3785E+02
   9.530  0.1458E+01  0.3787E+02
   9.540  0.2508E+01  0.3789E+02
   9.550  0.2098E+01  0.3791E+02
   9.560  0.1214E+01  0.3792E+02
   9.570  0.1215E+01  0.3794E+02
   9.580  0.1203E+01  0.3795E+02
   9.590  0.9094E+00  0.3796E+02
   9.600  0.5406E-01  0.3796E+02
   9.610 -0.1398E+00  0.3796E+02
   9.620 -0.2464E-01  0.3796E+02
   9.630 -0.1061E-02  0.3796E+02
   9.640 -0.1361E-04  0.3796E+02
   9.650 -0.5529E-07  0.3796E+02
   9.660 -0.7301E-10  0.3796E+02
   9.670 -0.3100E-13  0.3796E+02
   9.680  0.3044E-11  0.3796E+02
   9.690  0.4027E-08  0.3796E+02
   9.700  0.1774E-05  0.3796E+02
   9.710  0.2585E-03  0.3796E+02
   9.720  0.1232E-01  0.3796E+02
   9.730  0.1882E+00  0.3796E+02
   9.740  0.8825E+00  0.3797E+02
   9.750  0.1124E+01  0.3798E+02
   9.760  0.1674E+00  0.3798E+02
   9.770 -0.1309E+00  0.3798E+02
   9.780  0.1715E+00  0.3798E+02
   9.790  0.9073E+00  0.3799E+02
   9.800  0.1104E+01  0.3800E+02
   9.810  0.1404E+00  0.3800E+02
   9.820 -0.1419E+00  0.3800E+02
   9.830 -0.2783E-01  0.3800E+02
   9.840 -0.1280E-02  0.3800E+02
   9.850 -0.1742E-04  0.3800E+02
   9.860 -0.7494E-07  0.3800E+02
   9.870 -0.1047E-09  0.3800E+02
   9.880 -0.4815E-13  0.3800E+02
   9.890 -0.7356E-17  0.3800E+02
   9.900 -0.3752E-21  0.3800E+02
   9.910 -0.6413E-26  0.3800E+02
   9.920 -0.3682E-31  0.3800E+02
   9.930 -0.7113E-37  0.3800E+02
   9.940 -0.4632E-43  0.3800E+02
   9.950 -0.1018E-49  0.3800E+02
   9.960 -0.7549E-57  0.3800E+02
   9.970 -0.1892E-64  0.3800E+02
   9.980 -0.1604E-72  0.3800E+02
   9.990 -0.1294E-79  0.3800E+02
  10.000 -0.1249E-79  0.3800E+02
  10.010 -0.1249E-79  0.3800E+02
  10.020 -0.1250E-79  0.3800E+02
  10.030 -0.1250E-79  0.3800E+02
  10.040 -0.1251E-79  0.3800E+02
  10.050 -0.1251E-79  0.3800E+02
  10.060 -0.1252E-79  0.3800E+02
  10.070 -0.1252E-79  0.3800E+02
  10.080 -0.1253E-79  0.3800E+02
  10.090 -0.1253E-79  0.3800E+02
  10.100 -0.1254E-79  0.3800E+02
  10.110 -0.1254E-79  0.3800E+02
  10.120 -0.1255E-79  0.3800E+02
  10.130 -0.1255E-79  0.3800E+02
  10.140 -0.1256E-79  0.3800E+02
  10.150 -0.1256E-79  0.3800E+02
  10.160 -0.1257E-79  0.3800E+02
  10.170 -0.1257E-79  0.3800E+02
  10.180 -0.1258E-79  0.3800E+02
  10.190 -0.1258E-79  0.3800E+02
  10.200 -0.1259E-79  0.3800E+02
  10.210 -0.1259E-79  0.3800E+02
  10.220 -0.1260E-79  0.3800E+02
  10.230 -0.1260E-79  0.3800E+02
  10.240 -0.1261E-79  0.3800E+02
  10.250 -0.1261E-79  0.3800E+02
  10.260 -0.1262E-79  0.3800E+02
  10.270 -0.1262E-79  0.3800E+02
  10.280 -0.1263E-79  0.3800E+02
  10.290 -0.1263E-79  0.3800E+02
  10.300 -0.1264E-79  0.3800E+02
  10.310 -0.1264E-79  0.3800E+02
  10.320 -0.1265E-79  0.3800E+02
  10.330 -0.1265E-79  0.3800E+02
  10.340 -0.1266E-79  0.3800E+02
  10.350 -0.1266E-79  0.3800E+02
  10.360 -0.1267E-79  0.3800E+02
  10.370 -0.1267E-79  0.3800E+02
  10.380 -0.1268E-79  0.3800E+02
  10.390 -0.1268E-79  0.3800E+02
  10.400 -0.1269E-79  0.3800E+02
  10.410 -0.1269E-79  0.3800E+02
  10.420 -0.1270E-79  0.3800E+02
  10.430 -0.1270E-79  0.3800E+02
  10.440 -0.1271E-79  0.3800E+02
  10.450 -0.1271E-79  0.3800E+02
  10.460 -0.1272E-79  0.3800E+02
  10.470 -0.1272E-79  0.3800E+02
  10.480 -0.1273E-79  0.3800E+02
  10.490 -0.1273E-79  0.3800E+02
  10.500 -0.1274E-79  0.3800E+02
  10.510 -0.1274E-79  0.3800E+02
  10.520 -0.1275E-79  0.3800E+02
  10.530 -0.1275E-79  0.3800E+02
  10.540 -0.1276E-79  0.3800E+02
  10.550 -0.1276E-79  0.3800E+02
  10.560 -0.1277E-79  0.3800E+02
  10.570 -0.1277E-79  0.3800E+02
  10.580 -0.1278E-79  0.3800E+02
  10.590 -0.1278E-79  0.3800E+02
  10.600 -0.1279E-79  0.3800E+02
  10.610 -0.1279E-79  0.3800E+02
  10.620 -0.1280E-79  0.3800E+02
  10.630 -0.1280E-79  0.3800E+02
  10.640 -0.1281E-79  0.3800E+02
  10.650 -0.1281E-79  0.3800E+02
  10.660 -0.1282E-79  0.3800E+02
  10.670 -0.1282E-79  0.3800E+02
  10.680 -0.1283E-79  0.3800E+02
  10.690 -0.1283E-79  0.3800E+02
  10.700 -0.1284E-79  0.3800E+02
  10.710 -0.1284E-79  0.3800E+02
  10.720 -0.1285E-79  0.3800E+02
  10.730 -0.1285E-79  0.3800E+02
  10.740 -0.1286E-79  0.3800E+02
  10.750 -0.1286E-79  0.3800E+02
  10.760 -0.1287E-79  0.3800E+02
  10.770 -0.1287E-79  0.3800E+02
  10.780 -0.1288E-79  0.3800E+02
  10.790 -0.1288E-79  0.3800E+02
  10.800 -0.1289E-79  0.3800E+02
  10.810 -0.1289E-79  0.3800E+02
  10.820 -0.1290E-79  0.3800E+02
  10.830 -0.1290E-79  0.3800E+02
  10.840 -0.1291E-79  0.3800E+02
  10.850 -0.1291E-79  0.3800E+02
  10.860 -0.1292E-79  0.3800E+02
  10.870 -0.1292E-79  0.3800E+02
  10.880 -0.1293E-79  0.3800E+02
  10.890 -0.1293E-79  0.3800E+02
  10.900 -0.1294E-79  0.3800E+02
  10.910 -0.1294E-79  0.3800E+02
  10.920 -0.1295E-79  0.3800E+02
  10.930 -0.1295E-79  0.3800E+02
  10.940 -0.1296E-79  0.3800E+02
  10.950 -0.1296E-79  0.3800E+02
  10.960 -0.1297E-79  0.3800E+02
  10.970 -0.1297E-79  0.3800E+02
  10.980 -0.1298E-79  0.3800E+02
  10.990 -0.1298E-79  0.3800E+02
  11.000 -0.1299E-79  0.3800E+02
  11.010 -0.1299E-79  0.3800E+02
  11.020 -0.1300E-79  0.3800E+02
  11.030 -0.1300E-79  0.3800E+02
  11.040 -0.1301E-79  0.3800E+02
  11.050 -0.1301E-79  0.3800E+02
  11.060 -0.1302E-79  0.3800E+02
  11.070 -0.1302E-79  0.3800E+02
  11.080 -0.1303E-79  0.3800E+02
  11.090 -0.1303E-79  0.3800E+02
  11.100 -0.1304E-79  0.3800E+02
  11.110 -0.1304E-79  0.3800E+02
  11.120 -0.1305E-79  0.3800E+02
  11.130 -0.1305E-79  0.3800E+02
  11.140 -0.1306E-79  0.3800E+02
  11.150 -0.1306E-79  0.3800E+02
  11.160 -0.1307E-79  0.3800E+02
  11.170 -0.1307E-79  0.3800E+02
  11.180 -0.1308E-79  0.3800E+02
  11.190 -0.1308E-79  0.3800E+02
  11.200 -0.1309E-79  0.3800E+02
  11.210 -0.1309E-79  0.3800E+02
  11.220 -0.1310E-79  0.3800E+02
  11.230 -0.1310E-79  0.3800E+02
  11.240 -0.1311E-79  0.3800E+02
  11.250 -0.1311E-79  0.3800E+02
  11.260 -0.1312E-79  0.3800E+02
  11.270 -0.1312E-79  0.3800E+02
  11.280 -0.1313E-79  0.3800E+02
  11.290 -0.1313E-79  0.3800E+02
  11.300 -0.1314E-79  0.3800E+02
  11.310 -0.1314E-79  0.3800E+02
  11.320 -0.1315E-79  0.3800E+02
  11.330 -0.1315E-79  0.3800E+02
  11.340 -0.1316E-79  0.3800E+02
  11.350 -0.1316E-79  0.3800E+02
  11.360 -0.1317E-79  0.3800E+02
  11.370 -0.1317E-79  0.3800E+02
  11.380 -0.1318E-79  0.3800E+02
  11.390 -0.1318E-79  0.3800E+02
  11.400 -0.1319E-79  0.3800E+02
  11.410 -0.1319E-79  0.3800E+02
  11.420 -0.1320E-79  0.3800E+02
  11.430 -0.1320E-79  0.3800E+02
  11.440 -0.1321E-79  0.3800E+02
  11.450 -0.1321E-79  0.3800E+02
  11.460 -0.1322E-79  0.3800E+02
  11.470 -0.1322E-79  0.3800E+02
  11.480 -0.1323E-79  0.3800E+02
  11.490 -0.1323E-79  0.3800E+02
  11.500 -0.1324E-79  0.3800E+02
  11.510 -0.1324E-79  0.3800E+02
  11.520 -0.1325E-79  0.3800E+02
  11.530 -0.1325E-79  0.3800E+02
  11.540 -0.1326E-79  0.3800E+02
  11.550 -0.1326E-79  0.3800E+02
  11.560 -0.1327E-79  0.3800E+02
  11.570 -0.1327E-79  0.3800E+02
  11.580 -0.1328E-79  0.3800E+02
  11.590 -0.1328E-79  0.3800E+02
  11.600 -0.1329E-79  0.3800E+02
  11.610 -0.1329E-79  0.3800E+02
  11.620 -0.1330E-79  0.3800E+02
  11.630 -0.1330E-79  0.3800E+02
  11.640 -0.1331E-79  0.3800E+02
  11.650 -0.1331E-79  0.3800E+02
  11.660 -0.1332E-79  0.3800E+02
  11.670 -0.1332E-79  0.3800E+02
  11.680 -0.1333E-79  0.3800E+02
  11.690 -0.1333E-79  0.3800E+02
  11.700 -0.1334E-79  0.3800E+02
  11.710 -0.1334E-79  0.3800E+02
  11.720 -0.1335E-79  0.3800E+02
  11.730 -0.1335E-79  0.3800E+02
  11.740 -0.1336E-79  0.3800E+02
  11.750 -0.1336E-79  0.3800E+02
  11.760 -0.1337E-79  0.3800E+02
  11.770 -0.1337E-79  0.3800E+02
  11.780 -0.1338E-79  0.3800E+02
  11.790 -0.1338E-79  0.3800E+02
  11.800 -0.1339E-79  0.3800E+02
  11.810 -0.1339E-79  0.3800E+02
  11.820 -0.1340E-79  0.3800E+02
  11.830 -0.1340E-79  0.3800E+02
  11.840 -0.1341E-79  0.3800E+02
  11.850 -0.1341E-79  0.3800E+02
  11.860 -0.1342E-79  0.3800E+02
  11.870 -0.1342E-79  0.3800E+02
  11.880 -0.1343E-79  0.3800E+02
  11.890 -0.1343E-79  0.3800E+02
  11.900 -0.1344E-79  0.3800E+02
  11.910 -0.1344E-79  0.3800E+02
  11.920 -0.1345E-79  0.3800E+02
  11.930 -0.1345E-79  0.3800E+02
  11.940 -0.1346E-79  0.3800E+02
  11.950 -0.1346E-79  0.3800E+02
  11.960 -0.1347E-79  0.3800E+02
  11.970 -0.1347E-79  0.3800E+02
  11.980 -0.1348E-79  0.3800E+02
  11.990 -0.1348E-79  0.3800E+02
  12.000 -0.1349E-79  0.3800E+02
  12.010 -0.1349E-79  0.3800E+02
  12.020 -0.1350E-79  0.3800E+02
  12.030 -0.1350E-79  0.3800E+02
  12.040 -0.1351E-79  0.3800E+02
  12.050 -0.1351E-79  0.3800E+02
  12.060 -0.1352E-79  0.3800E+02
  12.070 -0.1352E-79  0.3800E+02
  12.080 -0.1353E-79  0.3800E+02
  12.090 -0.1353E-79  0.3800E+02
  12.100 -0.1354E-79  0.3800E+02
  12.110 -0.1354E-79  0.3800E+02
  12.120 -0.1355E-79  0.3800E+02
  12.130 -0.1355E-79  0.3800E+02
  12.140 -0.1356E-79  0.3800E+02
  12.150 -0.1356E-79  0.3800E+02
  12.160 -0.1357E-79  0.3800E+02
  12.170 -0.1357E-79  0.3800E+02
  12.180 -0.1358E-79  0.3800E+02
  12.190 -0.1358E-79  0.3800E+02
  12.200 -0.1359E-79  0.3800E+02
  12.210 -0.1359E-79  0.3800E+02
  12.220 -0.1360E-79  0.3800E+02
  12.230 -0.1360E-79  0.3800E+02
  12.240 -0.1361E-79  0.3800E+02
  12.250 -0.1361E-79  0.3800E+02
  12.260 -0.1362E-79  0.3800E+02
  12.270 -0.1362E-79  0.3800E+02
  12.280 -0.1363E-79  0.3800E+02
  12.290 -0.1363E-79  0.3800E+02
  12.300 -0.1364E-79  0.3800E+02
  12.310 -0.1364E-79  0.3800E+02
  12.320 -0.1365E-79  0.3800E+02
  12.330 -0.1365E-79  0.3800E+02
  12.340 -0.1366E-79  0.3800E+02
  12.350 -0.1366E-79  0.3800E+02
  12.360 -0.1367E-79  0.3800E+02
  12.370 -0.1367E-79  0.3800E+02
  12.380 -0.1368E-79  0.3800E+02
  12.390 -0.1368E-79  0.3800E+02
  12.400 -0.1369E-79  0.3800E+02
  12.410 -0.1369E-79  0.3800E+02
  12.420 -0.1370E-79  0.3800E+02
  12.430 -0.1370E-79  0.3800E+02
  12.440 -0.1371E-79  0.3800E+02
  12.450 -0.1371E-79  0.3800E+02
  12.460 -0.1372E-79  0.3800E+02
  12.470 -0.1372E-79  0.3800E+02
  12.480 -0.1373E-79  0.3800E+02
  12.490 -0.1373E-79  0.3800E+02
  12.500 -0.1374E-79  0.3800E+02
  12.510 -0.1374E-79  0.3800E+02
  12.520 -0.1375E-79  0.3800E+02
  12.530 -0.1375E-79  0.3800E+02
  12.540 -0.1376E-79  0.3800E+02
  12.550 -0.1376E-79  0.3800E+02
  12.560 -0.1377E-79  0.3800E+02
  12.570 -0.1377E-79  0.3800E+02
  12.580 -0.1378E-79  0.3800E+02
  12.590 -0.1378E-79  0.3800E+02
  12.600 -0.1379E-79  0.3800E+02
  12.610 -0.1379E-79  0.3800E+02
  12.620 -0.1380E-79  0.3800E+02
  12.630 -0.1380E-79  0.3800E+02
  12.640 -0.1381E-79  0.3800E+02
  12.650 -0.1381E-79  0.3800E+02
  12.660 -0.1382E-79  0.3800E+02
  12.670 -0.1382E-79  0.3800E+02
  12.680 -0.1383E-79  0.3800E+02
  12.690 -0.1383E-79  0.3800E+02
  12.700 -0.1384E-79  0.3800E+02
  12.710 -0.1384E-79  0.3800E+02
  12.720 -0.1385E-79  0.3800E+02
  12.730 -0.1385E-79  0.3800E+02
  12.740 -0.1386E-79  0.3800E+02
  12.750 -0.1386E-79  0.3800E+02
  12.760 -0.1387E-79  0.3800E+02
  12.770 -0.1387E-79  0.3800E+02
  12.780 -0.1388E-79  0.3800E+02
  12.790 -0.1388E-79  0.3800E+02
  12.800 -0.1389E-79  0.3800E+02
  12.810 -0.1389E-79  0.3800E+02
  12.820 -0.1390E-79  0.3800E+02
  12.830 -0.1390E-79  0.3800E+02
  12.840 -0.1391E-79  0.3800E+02
  12.850 -0.1391E-79  0.3800E+02
  12.860 -0.1392E-79  0.3800E+02
  12.870 -0.1392E-79  0.3800E+02
  12.880 -0.1393E-79  0.3800E+02
  12.890 -0.1393E-79  0.3800E+02
  12.900 -0.1394E-79  0.3800E+02
  12.910 -0.1394E-79  0.3800E+02
  12.920 -0.1395E-79  0.3800E+02
  12.930 -0.1395E-79  0.3800E+02
  12.940 -0.1396E-79  0.3800E+02
  12.950 -0.1396E-79  0.3800E+02
  12.960 -0.1397E-79  0.3800E+02
  12.970 -0.1397E-79  0.3800E+02
  12.980 -0.1398E-79  0.3800E+02
  12.990 -0.1398E-79  0.3800E+02
  13.000 -0.1399E-79  0.3800E+02
  13.010 -0.1399E-79  0.3800E+02
  13.020 -0.1400E-79  0.3800E+02
  13.030 -0.1400E-79  0.3800E+02
  13.040 -0.1401E-79  0.3800E+02
  13.050 -0.1401E-79  0.3800E+02
  13.060 -0.1402E-79  0.3800E+02
  13.070 -0.1402E-79  0.3800E+02
  13.080 -0.1403E-79  0.3800E+02
  13.090 -0.1403E-79  0.3800E+02
  13.100 -0.1404E-79  0.3800E+02
  13.110 -0.1404E-79  0.3800E+02
  13.120 -0.1405E-79  0.3800E+02
  13.130 -0.1405E-79  0.3800E+02
  13.140 -0.1406E-79  0.3800E+02
  13.150 -0.1406E-79  0.3800E+02
  13.160 -0.1407E-79  0.3800E+02
  13.170 -0.1408E-79  0.3800E+02
  13.180 -0.1408E-79  0.3800E+02
  13.190 -0.1409E-79  0.3800E+02
  13.200 -0.1409E-79  0.3800E+02
  13.210 -0.1410E-79  0.3800E+02
  13.220 -0.1410E-79  0.3800E+02
  13.230 -0.1411E-79  0.3800E+02
  13.240 -0.1411E-79  0.3800E+02
  13.250 -0.1412E-79  0.3800E+02
  13.260 -0.1412E-79  0.3800E+02
  13.270 -0.1413E-79  0.3800E+02
  13.280 -0.1413E-79  0.3800E+02
  13.290 -0.1414E-79  0.3800E+02
  13.300 -0.1414E-79  0.3800E+02
  13.310 -0.1415E-79  0.3800E+02
  13.320 -0.1415E-79  0.3800E+02
  13.330 -0.1416E-79  0.3800E+02
  13.340 -0.1416E-79  0.3800E+02
  13.350 -0.1417E-79  0.3800E+02
  13.360 -0.1417E-79  0.3800E+02
  13.370 -0.1418E-79  0.3800E+02
  13.380 -0.1418E-79  0.3800E+02
  13.390 -0.1419E-79  0.3800E+02
  13.400 -0.1419E-79  0.3800E+02
  13.410 -0.1420E-79  0.3800E+02
  13.420 -0.1420E-79  0.3800E+02
  13.430 -0.1421E-79  0.3800E+02
  13.440 -0.1421E-79  0.3800E+02
  13.450 -0.1422E-79  0.3800E+02
  13.460 -0.1422E-79  0.3800E+02
  13.470 -0.1423E-79  0.3800E+02
  13.480 -0.1423E-79  0.3800E+02
  13.490 -0.1424E-79  0.3800E+02
  13.500 -0.1424E-79  0.3800E+02
  13.510 -0.1425E-79  0.3800E+02
  13.520 -0.1425E-79  0.3800E+02
  13.530 -0.1426E-79  0.3800E+02
  13.540 -0.1426E-79  0.3800E+02
  13.550 -0.1427E-79  0.3800E+02
  13.560 -0.1427E-79  0.3800E+02
  13.570 -0.1428E-79  0.3800E+02
  13.580 -0.1428E-79  0.3800E+02
  13.590 -0.1429E-79  0.3800E+02
  13.600 -0.1429E-79  0.3800E+02
  13.610 -0.1430E-79  0.3800E+02
  13.620 -0.1430E-79  0.3800E+02
  13.630 -0.1431E-79  0.3800E+02
  13.640 -0.1431E-79  0.3800E+02
  13.650 -0.1432E-79  0.3800E+02
  13.660 -0.1432E-79  0.3800E+02
  13.670 -0.1433E-79  0.3800E+02
  13.680 -0.1433E-79  0.3800E+02
  13.690 -0.1434E-79  0.3800E+02
  13.700 -0.1434E-79  0.3800E+02
  13.710 -0.1435E-79  0.3800E+02
  13.720 -0.1435E-79  0.3800E+02
  13.730 -0.1436E-79  0.3800E+02
  13.740 -0.1436E-79  0.3800E+02
  13.750 -0.1437E-79  0.3800E+02
  13.760 -0.1437E-79  0.3800E+02
  13.770 -0.1438E-79  0.3800E+02
  13.780 -0.1438E-79  0.3800E+02
  13.790 -0.1439E-79  0.3800E+02
  13.800 -0.1439E-79  0.3800E+02
  13.810 -0.1440E-79  0.3800E+02
  13.820 -0.1440E-79  0.3800E+02
  13.830 -0.1441E-79  0.3800E+02
  13.840 -0.1441E-79  0.3800E+02
  13.850 -0.1442E-79  0.3800E+02
  13.860 -0.1442E-79  0.3800E+02
  13.870 -0.1443E-79  0.3800E+02
  13.880 -0.1443E-79  0.3800E+02
  13.890 -0.1444E-79  0.3800E+02
  13.900 -0.1444E-79  0.3800E+02
  13.910 -0.1445E-79  0.3800E+02
  13.920 -0.1445E-79  0.3800E+02
  13.930 -0.1446E-79  0.3800E+02
  13.940 -0.1446E-79  0.3800E+02
  13.950 -0.1447E-79  0.3800E+02
  13.960 -0.1447E-79  0.3800E+02
  13.970 -0.1448E-79  0.3800E+02
  13.980 -0.1448E-79  0.3800E+02
  13.990 -0.1449E-79  0.3800E+02
  14.000 -0.1449E-79  0.3800E+02
  14.010 -0.1450E-79  0.3800E+02
  14.020 -0.1450E-79  0.3800E+02
  14.030 -0.1451E-79  0.3800E+02
  14.040 -0.1451E-79  0.3800E+02
  14.050 -0.1452E-79  0.3800E+02
  14.060 -0.1452E-79  0.3800E+02
  14.070 -0.1453E-79  0.3800E+02
  14.080 -0.1453E-79  0.3800E+02
  14.090 -0.1454E-79  0.3800E+02
  14.100 -0.1454E-79  0.3800E+02
  14.110 -0.1455E-79  0.3800E+02
  14.120 -0.1455E-79  0.3800E+02
  14.130 -0.1456E-79  0.3800E+02
  14.140 -0.1456E-79  0.3800E+02
  14.150 -0.1457E-79  0.3800E+02
  14.160 -0.1457E-79  0.3800E+02
  14.170 -0.1458E-79  0.3800E+02
  14.180 -0.1458E-79  0.3800E+02
  14.190 -0.1459E-79  0.3800E+02
  14.200 -0.1459E-79  0.3800E+02
  14.210 -0.1460E-79  0.3800E+02
  14.220 -0.1460E-79  0.3800E+02
  14.230 -0.1461E-79  0.3800E+02
  14.240 -0.1461E-79  0.3800E+02
  14.250 -0.1462E-79  0.3800E+02
  14.260 -0.1462E-79  0.3800E+02
  14.270 -0.1463E-79  0.3800E+02
  14.280 -0.1463E-79  0.3800E+02
  14.290 -0.1464E-79  0.3800E+02
  14.300 -0.1464E-79  0.3800E+02
  14.310 -0.1465E-79  0.3800E+02
  14.320 -0.1465E-79  0.3800E+02
  14.330 -0.1466E-79  0.3800E+02
  14.340 -0.1466E-79  0.3800E+02
  14.350 -0.1467E-79  0.3800E+02
  14.360 -0.1467E-79  0.3800E+02
  14.370 -0.1468E-79  0.3800E+02
  14.380 -0.1468E-79  0.3800E+02
  14.390 -0.1469E-79  0.3800E+02
  14.400 -0.1469E-79  0.3800E+02
  14.410 -0.1470E-79  0.3800E+02
  14.420 -0.1470E-79  0.3800E+02
  14.430 -0.1471E-79  0.3800E+02
  14.440 -0.1471E-79  0.3800E+02
  14.450 -0.1472E-79  0.3800E+02
  14.460 -0.1472E-79  0.3800E+02
  14.470 -0.1473E-79  0.3800E+02
  14.480 -0.1473E-79  0.3800E+02
  14.490 -0.1474E-79  0.3800E+02
  14.500 -0.1474E-79  0.3800E+02
  14.510 -0.1475E-79  0.3800E+02
  14.520 -0.1475E-79  0.3800E+02
  14.530 -0.1476E-79  0.3800E+02
  14.540 -0.1476E-79  0.3800E+02
  14.550 -0.1477E-79  0.3800E+02
  14.560 -0.1477E-79  0.3800E+02
  14.570 -0.1478E-79  0.3800E+02
  14.580 -0.1478E-79  0.3800E+02
  14.590 -0.1479E-79  0.3800E+02
  14.600 -0.1479E-79  0.3800E+02
  14.610 -0.1480E-79  0.3800E+02
  14.620 -0.1480E-79  0.3800E+02
  14.630 -0.1481E-79  0.3800E+02
  14.640 -0.1481E-79  0.3800E+02
  14.650 -0.1482E-79  0.3800E+02
  14.660 -0.1482E-79  0.3800E+02
  14.670 -0.1483E-79  0.3800E+02
  14.680 -0.1483E-79  0.3800E+02
  14.690 -0.1484E-79  0.3800E+02
  14.700 -0.1484E-79  0.3800E+02
  14.710 -0.1485E-79  0.3800E+02
  14.720 -0.1485E-79  0.3800E+02
  14.730 -0.1486E-79  0.3800E+02
  14.740 -0.1486E-79  0.3800E+02
  14.750 -0.1487E-79  0.3800E+02
  14.760 -0.1487E-79  0.3800E+02
  14.770 -0.1488E-79  0.3800E+02
  14.780 -0.1488E-79  0.3800E+02
  14.790 -0.1489E-79  0.3800E+02
  14.800 -0.1489E-79  0.3800E+02
  14.810 -0.1490E-79  0.3800E+02
  14.820 -0.1490E-79  0.3800E+02
  14.830 -0.1491E-79  0.3800E+02
  14.840 -0.1491E-79  0.3800E+02
  14.850 -0.1492E-79  0.3800E+02
  14.860 -0.1492E-79  0.3800E+02
  14.870 -0.1493E-79  0.3800E+02
  14.880 -0.1493E-79  0.3800E+02
  14.890 -0.1494E-79  0.3800E+02
  14.900 -0.1494E-79  0.3800E+02
  14.910 -0.1495E-79  0.3800E+02
  14.920 -0.1495E-79  0.3800E+02
  14.930 -0.1496E-79  0.3800E+02
  14.940 -0.1496E-79  0.3800E+02
  14.950 -0.1497E-79  0.3800E+02
  14.960 -0.1497E-79  0.3800E+02
  14.970 -0.1498E-79  0.3800E+02
  14.980 -0.1498E-79  0.3800E+02
  14.990 -0.1499E-79  0.3800E+02
  15.000 -0.1499E-79  0.3800E+02
  15.010 -0.1500E-79  0.3800E+02
  15.020 -0.1500E-79  0.3800E+02
  15.030 -0.1501E-79  0.3800E+02
  15.040 -0.1501E-79  0.3800E+02
  15.050 -0.1502E-79  0.3800E+02
  15.060 -0.1502E-79  0.3800E+02
  15.070 -0.1503E-79  0.3800E+02
  15.080 -0.1503E-79  0.3800E+02
  15.090 -0.1504E-79  0.3800E+02
  15.100 -0.1504E-79  0.3800E+02
  15.110 -0.1505E-79  0.3800E+02
  15.120 -0.1505E-79  0.3800E+02
  15.130 -0.1506E-79  0.3800E+02
  15.140 -0.1506E-79  0.3800E+02
  15.150 -0.1507E-79  0.3800E+02
  15.160 -0.1507E-79  0.3800E+02
  15.170 -0.1508E-79  0.3800E+02
  15.180 -0.1508E-79  0.3800E+02
  15.190 -0.1509E-79  0.3800E+02
  15.200 -0.1509E-79  0.3800E+02
  15.210 -0.1510E-79  0.3800E+02
  15.220 -0.1510E-79  0.3800E+02
  15.230 -0.1511E-79  0.3800E+02
  15.240 -0.1511E-79  0.3800E+02
  15.250 -0.1512E-79  0.3800E+02
  15.260 -0.1512E-79  0.3800E+02
  15.270 -0.1513E-79  0.3800E+02
  15.280 -0.1513E-79  0.3800E+02
  15.290 -0.1514E-79  0.3800E+02
  15.300 -0.1514E-79  0.3800E+02
  15.310 -0.1515E-79  0.3800E+02
  15.320 -0.1515E-79  0.3800E+02
  15.330 -0.1516E-79  0.3800E+02
  15.340 -0.1516E-79  0.3800E+02
  15.350 -0.1517E-79  0.3800E+02
  15.360 -0.1517E-79  0.3800E+02
  15.370 -0.1518E-79  0.3800E+02
  15.380 -0.1518E-79  0.3800E+02
  15.390 -0.1519E-79  0.3800E+02
  15.400 -0.1519E-79  0.3800E+02
  15.410 -0.1520E-79  0.3800E+02
  15.420 -0.1520E-79  0.3800E+02
  15.430 -0.1521E-79  0.3800E+02
  15.440 -0.1521E-79  0.3800E+02
  15.450 -0.1522E-79  0.3800E+02
  15.460 -0.1522E-79  0.3800E+02
  15.470 -0.1523E-79  0.3800E+02
  15.480 -0.1523E-79  0.3800E+02
  15.490 -0.1524E-79  0.3800E+02
  15.500 -0.1524E-79  0.3800E+02
  15.510 -0.1525E-79  0.3800E+02
  15.520 -0.1525E-79  0.3800E+02
  15.530 -0.1526E-79  0.3800E+02
  15.540 -0.1526E-79  0.3800E+02
  15.550 -0.1527E-79  0.3800E+02
  15.560 -0.1527E-79  0.3800E+02
  15.570 -0.1528E-79  0.3800E+02
  15.580 -0.1528E-79  0.3800E+02
  15.590 -0.1529E-79  0.3800E+02
  15.600 -0.1529E-79  0.3800E+02
  15.610 -0.1530E-79  0.3800E+02
  15.620 -0.1530E-79  0.3800E+02
  15.630 -0.1531E-79  0.3800E+02
  15.640 -0.1531E-79  0.3800E+02
  15.650 -0.1532E-79  0.3800E+02
  15.660 -0.1532E-79  0.3800E+02
  15.670 -0.1533E-79  0.3800E+02
  15.680 -0.1533E-79  0.3800E+02
  15.690 -0.1534E-79  0.3800E+02
  15.700 -0.1534E-79  0.3800E+02
  15.710 -0.1535E-79  0.3800E+02
  15.720 -0.1535E-79  0.3800E+02
  15.730 -0.1536E-79  0.3800E+02
  15.740 -0.1536E-79  0.3800E+02
  15.750 -0.1537E-79  0.3800E+02
  15.760 -0.1537E-79  0.3800E+02
  15.770 -0.1538E-79  0.3800E+02
  15.780 -0.1538E-79  0.3800E+02
  15.790 -0.1539E-79  0.3800E+02
  15.800 -0.1539E-79  0.3800E+02
  15.810 -0.1540E-79  0.3800E+02
  15.820 -0.1540E-79  0.3800E+02
  15.830 -0.1541E-79  0.3800E+02
  15.840 -0.1541E-79  0.3800E+02
  15.850 -0.1542E-79  0.3800E+02
  15.860 -0.1542E-79  0.3800E+02
  15.870 -0.1543E-79  0.3800E+02
  15.880 -0.1543E-79  0.3800E+02
  15.890 -0.1544E-79  0.3800E+02
  15.900 -0.1544E-79  0.3800E+02
  15.910 -0.1545E-79  0.3800E+02
  15.920 -0.1545E-79  0.3800E+02
  15.930 -0.1546E-79  0.3800E+02
  15.940 -0.1546E-79  0.3800E+02
  15.950 -0.1547E-79  0.3800E+02
  15.960 -0.1547E-79  0.3800E+02
  15.970 -0.1548E-79  0.3800E+02
  15.980 -0.1548E-79  0.3800E+02
  15.990 -0.1549E-79  0.3800E+02
  16.000 -0.1549E-79  0.3800E+02
