#  E (eV)   dos(E)     Int dos(E) EFermi =    1.520 eV
  -9.000  0.6458E-80  0.6458E-82
  -8.990  0.6453E-80  0.1291E-81
  -8.980  0.6448E-80  0.1936E-81
  -8.970  0.6443E-80  0.2580E-81
  -8.960  0.6438E-80  0.3224E-81
  -8.950  0.6433E-80  0.3867E-81
  -8.940  0.6428E-80  0.4510E-81
  -8.930  0.6423E-80  0.5152E-81
  -8.920  0.6418E-80  0.5794E-81
  -8.910  0.6413E-80  0.6436E-81
  -8.900  0.6408E-80  0.7076E-81
  -8.890  0.6403E-80  0.7717E-81
  -8.880  0.6398E-80  0.8356E-81
  -8.870  0.6393E-80  0.8996E-81
  -8.860  0.6388E-80  0.9635E-81
  -8.850  0.6383E-80  0.1027E-80
  -8.840  0.6378E-80  0.1091E-80
  -8.830  0.6373E-80  0.1155E-80
  -8.820  0.6368E-80  0.1218E-80
  -8.810  0.6363E-80  0.1282E-80
  -8.800  0.6358E-80  0.1346E-80
  -8.790  0.6353E-80  0.1409E-80
  -8.780  0.6348E-80  0.1473E-80
  -8.770  0.6343E-80  0.1536E-80
  -8.760  0.6338E-80  0.1599E-80
  -8.750  0.6333E-80  0.1663E-80
  -8.740  0.6328E-80  0.1726E-80
  -8.730  0.6323E-80  0.1789E-80
  -8.720  0.6318E-80  0.1853E-80
  -8.710  0.6313E-80  0.1916E-80
  -8.700  0.6308E-80  0.1979E-80
  -8.690  0.6303E-80  0.2042E-80
  -8.680  0.6298E-80  0.2105E-80
  -8.670  0.6293E-80  0.2168E-80
  -8.660  0.6288E-80  0.2231E-80
  -8.650  0.6283E-80  0.2293E-80
  -8.640  0.6278E-80  0.2356E-80
  -8.630  0.6273E-80  0.2419E-80
  -8.620  0.6268E-80  0.2482E-80
  -8.610  0.6263E-80  0.2544E-80
  -8.600  0.6258E-80  0.2607E-80
  -8.590  0.6253E-80  0.2669E-80
  -8.580  0.6248E-80  0.2732E-80
  -8.570  0.6243E-80  0.2794E-80
  -8.560  0.6238E-80  0.2857E-80
  -8.550  0.6233E-80  0.2919E-80
  -8.540  0.6228E-80  0.2981E-80
  -8.530  0.6223E-80  0.3043E-80
  -8.520  0.6218E-80  0.3106E-80
  -8.510  0.6213E-80  0.3168E-80
  -8.500  0.6208E-80  0.3230E-80
  -8.490  0.6203E-80  0.3292E-80
  -8.480  0.6198E-80  0.3354E-80
  -8.470  0.6193E-80  0.3416E-80
  -8.460  0.6188E-80  0.3478E-80
  -8.450  0.6183E-80  0.3539E-80
  -8.440  0.6178E-80  0.3601E-80
  -8.430  0.6173E-80  0.3663E-80
  -8.420  0.6168E-80  0.3725E-80
  -8.410  0.6163E-80  0.3786E-80
  -8.400  0.6157E-80  0.3848E-80
  -8.390  0.6152E-80  0.3909E-80
  -8.380  0.6147E-80  0.3971E-80
  -8.370  0.6142E-80  0.4032E-80
  -8.360  0.6137E-80  0.4094E-80
  -8.350  0.6132E-80  0.4155E-80
  -8.340  0.6127E-80  0.4216E-80
  -8.330  0.6122E-80  0.4277E-80
  -8.320  0.6117E-80  0.4339E-80
  -8.310  0.6112E-80  0.4400E-80
  -8.300  0.6107E-80  0.4461E-80
  -8.290  0.6102E-80  0.4522E-80
  -8.280  0.6097E-80  0.4583E-80
  -8.270  0.6092E-80  0.4644E-80
  -8.260  0.6087E-80  0.4705E-80
  -8.250  0.6082E-80  0.4765E-80
  -8.240  0.6077E-80  0.4826E-80
  -8.230  0.6072E-80  0.4887E-80
  -8.220  0.6067E-80  0.4948E-80
  -8.210  0.6062E-80  0.5008E-80
  -8.200  0.6057E-80  0.5069E-80
  -8.190  0.6052E-80  0.5129E-80
  -8.180  0.6047E-80  0.5190E-80
  -8.170  0.6042E-80  0.5250E-80
  -8.160  0.6037E-80  0.5311E-80
  -8.150  0.6032E-80  0.5371E-80
  -8.140  0.6027E-80  0.5431E-80
  -8.130  0.6022E-80  0.5491E-80
  -8.120  0.6017E-80  0.5552E-80
  -8.110  0.6012E-80  0.5612E-80
  -8.100  0.6007E-80  0.5672E-80
  -8.090  0.6002E-80  0.5732E-80
  -8.080  0.5997E-80  0.5792E-80
  -8.070  0.5992E-80  0.5852E-80
  -8.060  0.5987E-80  0.5911E-80
  -8.050  0.5982E-80  0.5971E-80
  -8.040  0.5977E-80  0.6031E-80
  -8.030  0.5972E-80  0.6091E-80
  -8.020  0.5967E-80  0.6150E-80
  -8.010  0.5962E-80  0.6210E-80
  -8.000  0.5957E-80  0.6270E-80
  -7.990  0.5952E-80  0.6329E-80
  -7.980  0.5947E-80  0.6389E-80
  -7.970  0.5942E-80  0.6448E-80
  -7.960  0.5937E-80  0.6507E-80
  -7.950  0.5932E-80  0.6567E-80
  -7.940  0.5927E-80  0.6626E-80
  -7.930  0.5922E-80  0.6685E-80
  -7.920  0.5917E-80  0.6744E-80
  -7.910  0.5912E-80  0.6804E-80
  -7.900  0.5907E-80  0.6863E-80
  -7.890  0.5902E-80  0.6922E-80
  -7.880  0.5897E-80  0.6981E-80
  -7.870  0.5892E-80  0.7040E-80
  -7.860  0.5887E-80  0.7098E-80
  -7.850  0.5882E-80  0.7157E-80
  -7.840  0.5877E-80  0.7216E-80
  -7.830  0.5872E-80  0.7275E-80
  -7.820  0.5867E-80  0.7333E-80
  -7.810  0.5862E-80  0.7392E-80
  -7.800  0.5857E-80  0.7451E-80
  -7.790  0.5852E-80  0.7509E-80
  -7.780  0.5847E-80  0.7568E-80
  -7.770  0.5842E-80  0.7626E-80
  -7.760  0.5837E-80  0.7684E-80
  -7.750  0.5832E-80  0.7743E-80
  -7.740  0.5827E-80  0.7801E-80
  -7.730  0.5822E-80  0.7859E-80
  -7.720  0.5817E-80  0.7917E-80
  -7.710  0.5812E-80  0.7975E-80
  -7.700  0.5807E-80  0.8033E-80
  -7.690  0.5802E-80  0.8092E-80
  -7.680  0.5797E-80  0.8149E-80
  -7.670  0.5792E-80  0.8207E-80
  -7.660  0.5787E-80  0.8265E-80
  -7.650  0.5782E-80  0.8323E-80
  -7.640  0.5777E-80  0.8381E-80
  -7.630  0.5772E-80  0.8439E-80
  -7.620  0.5767E-80  0.8496E-80
  -7.610  0.5762E-80  0.8554E-80
  -7.600  0.5757E-80  0.8611E-80
  -7.590  0.5752E-80  0.8669E-80
  -7.580  0.5747E-80  0.8726E-80
  -7.570  0.5742E-80  0.8784E-80
  -7.560  0.5737E-80  0.8841E-80
  -7.550  0.5732E-80  0.8898E-80
  -7.540  0.5727E-80  0.8956E-80
  -7.530  0.5722E-80  0.9013E-80
  -7.520  0.5717E-80  0.9070E-80
  -7.510  0.5712E-80  0.9127E-80
  -7.500  0.5707E-80  0.9184E-80
  -7.490  0.5702E-80  0.9241E-80
  -7.480  0.5697E-80  0.9298E-80
  -7.470  0.5692E-80  0.9355E-80
  -7.460  0.5687E-80  0.9412E-80
  -7.450  0.5681E-80  0.9469E-80
  -7.440  0.5676E-80  0.9526E-80
  -7.430  0.5671E-80  0.9582E-80
  -7.420  0.5666E-80  0.9639E-80
  -7.410  0.5661E-80  0.9696E-80
  -7.400  0.5656E-80  0.9752E-80
  -7.390  0.5651E-80  0.9809E-80
  -7.380  0.5646E-80  0.9865E-80
  -7.370  0.5641E-80  0.9922E-80
  -7.360  0.5636E-80  0.9978E-80
  -7.350  0.5631E-80  0.1003E-79
  -7.340  0.5626E-80  0.1009E-79
  -7.330  0.5621E-80  0.1015E-79
  -7.320  0.5616E-80  0.1020E-79
  -7.310  0.5611E-80  0.1026E-79
  -7.300  0.5606E-80  0.1032E-79
  -7.290  0.5601E-80  0.1037E-79
  -7.280  0.5596E-80  0.1043E-79
  -7.270  0.5591E-80  0.1048E-79
  -7.260  0.5586E-80  0.1054E-79
  -7.250  0.5581E-80  0.1059E-79
  -7.240  0.5576E-80  0.1065E-79
  -7.230  0.5571E-80  0.1071E-79
  -7.220  0.5566E-80  0.1076E-79
  -7.210  0.5561E-80  0.1082E-79
  -7.200  0.5556E-80  0.1087E-79
  -7.190  0.5551E-80  0.1093E-79
  -7.180  0.5546E-80  0.1098E-79
  -7.170  0.5541E-80  0.1104E-79
  -7.160  0.5536E-80  0.1109E-79
  -7.150  0.5531E-80  0.1115E-79
  -7.140  0.5526E-80  0.1121E-79
  -7.130  0.5521E-80  0.1126E-79
  -7.120  0.5516E-80  0.1132E-79
  -7.110  0.5511E-80  0.1137E-79
  -7.100  0.5506E-80  0.1143E-79
  -7.090  0.5501E-80  0.1148E-79
  -7.080  0.5496E-80  0.1154E-79
  -7.070  0.5491E-80  0.1159E-79
  -7.060  0.5486E-80  0.1165E-79
  -7.050  0.5481E-80  0.1170E-79
  -7.040  0.5476E-80  0.1176E-79
  -7.030  0.5471E-80  0.1181E-79
  -7.020  0.5466E-80  0.1186E-79
  -7.010  0.5461E-80  0.1192E-79
  -7.000  0.5456E-80  0.1197E-79
  -6.990  0.5451E-80  0.1203E-79
  -6.980  0.5446E-80  0.1208E-79
  -6.970  0.5441E-80  0.1214E-79
  -6.960  0.5436E-80  0.1219E-79
  -6.950  0.5431E-80  0.1225E-79
  -6.940  0.5426E-80  0.1230E-79
  -6.930  0.5421E-80  0.1235E-79
  -6.920  0.5416E-80  0.1241E-79
  -6.910  0.5411E-80  0.1246E-79
  -6.900  0.5406E-80  0.1252E-79
  -6.890  0.5401E-80  0.1257E-79
  -6.880  0.5396E-80  0.1262E-79
  -6.870  0.5391E-80  0.1268E-79
  -6.860  0.5386E-80  0.1273E-79
  -6.850  0.5381E-80  0.1279E-79
  -6.840  0.5376E-80  0.1284E-79
  -6.830  0.5371E-80  0.1289E-79
  -6.820  0.5366E-80  0.1295E-79
  -6.810  0.5361E-80  0.1300E-79
  -6.800  0.5356E-80  0.1305E-79
  -6.790  0.5351E-80  0.1311E-79
  -6.780  0.5346E-80  0.1316E-79
  -6.770  0.5341E-80  0.1321E-79
  -6.760  0.5336E-80  0.1327E-79
  -6.750  0.5331E-80  0.1332E-79
  -6.740  0.5326E-80  0.1337E-79
  -6.730  0.5321E-80  0.1343E-79
  -6.720  0.5316E-80  0.1348E-79
  -6.710  0.5311E-80  0.1353E-79
  -6.700  0.5306E-80  0.1359E-79
  -6.690  0.5301E-80  0.1364E-79
  -6.680  0.5296E-80  0.1369E-79
  -6.670  0.5291E-80  0.1375E-79
  -6.660  0.5286E-80  0.1380E-79
  -6.650  0.5281E-80  0.1385E-79
  -6.640  0.5276E-80  0.1390E-79
  -6.630  0.5271E-80  0.1396E-79
  -6.620  0.5266E-80  0.1401E-79
  -6.610  0.5261E-80  0.1406E-79
  -6.600  0.5256E-80  0.1412E-79
  -6.590  0.5251E-80  0.1417E-79
  -6.580  0.5246E-80  0.1422E-79
  -6.570  0.5241E-80  0.1427E-79
  -6.560  0.5236E-80  0.1432E-79
  -6.550  0.5231E-80  0.1438E-79
  -6.540  0.5226E-80  0.1443E-79
  -6.530  0.5221E-80  0.1448E-79
  -6.520  0.5216E-80  0.1453E-79
  -6.510  0.5211E-80  0.1459E-79
  -6.500  0.5205E-80  0.1464E-79
  -6.490  0.5200E-80  0.1469E-79
  -6.480  0.5195E-80  0.1474E-79
  -6.470  0.5190E-80  0.1479E-79
  -6.460  0.5185E-80  0.1485E-79
  -6.450  0.5180E-80  0.1490E-79
  -6.440  0.5175E-80  0.1495E-79
  -6.430  0.5170E-80  0.1500E-79
  -6.420  0.5165E-80  0.1505E-79
  -6.410  0.5160E-80  0.1510E-79
  -6.400  0.5155E-80  0.1516E-79
  -6.390  0.5150E-80  0.1521E-79
  -6.380  0.5145E-80  0.1526E-79
  -6.370  0.5140E-80  0.1531E-79
  -6.360  0.5135E-80  0.1536E-79
  -6.350  0.5130E-80  0.1541E-79
  -6.340  0.5125E-80  0.1546E-79
  -6.330  0.5120E-80  0.1552E-79
  -6.320  0.5115E-80  0.1557E-79
  -6.310  0.5110E-80  0.1562E-79
  -6.300  0.5105E-80  0.1567E-79
  -6.290  0.5100E-80  0.1572E-79
  -6.280  0.5095E-80  0.1577E-79
  -6.270  0.5090E-80  0.1582E-79
  -6.260  0.5085E-80  0.1587E-79
  -6.250  0.5080E-80  0.1592E-79
  -6.240  0.5075E-80  0.1597E-79
  -6.230  0.5070E-80  0.1602E-79
  -6.220  0.5065E-80  0.1608E-79
  -6.210  0.5060E-80  0.1613E-79
  -6.200  0.5055E-80  0.1618E-79
  -6.190  0.5050E-80  0.1623E-79
  -6.180  0.5045E-80  0.1628E-79
  -6.170  0.5040E-80  0.1633E-79
  -6.160  0.5035E-80  0.1638E-79
  -6.150  0.5030E-80  0.1643E-79
  -6.140  0.5025E-80  0.1648E-79
  -6.130  0.5020E-80  0.1653E-79
  -6.120  0.5015E-80  0.1658E-79
  -6.110  0.5010E-80  0.1663E-79
  -6.100  0.5005E-80  0.1668E-79
  -6.090  0.5000E-80  0.1673E-79
  -6.080  0.4995E-80  0.1678E-79
  -6.070  0.4990E-80  0.1683E-79
  -6.060  0.4985E-80  0.1688E-79
  -6.050  0.4980E-80  0.1693E-79
  -6.040  0.4975E-80  0.1698E-79
  -6.030  0.4970E-80  0.1703E-79
  -6.020  0.4965E-80  0.1708E-79
  -6.010  0.4960E-80  0.1713E-79
  -6.000  0.4955E-80  0.1718E-79
  -5.990  0.4950E-80  0.1723E-79
  -5.980  0.4945E-80  0.1728E-79
  -5.970  0.4940E-80  0.1733E-79
  -5.960  0.4935E-80  0.1737E-79
  -5.950  0.4930E-80  0.1742E-79
  -5.940  0.4925E-80  0.1747E-79
  -5.930  0.4920E-80  0.1752E-79
  -5.920  0.4915E-80  0.1757E-79
  -5.910  0.4910E-80  0.1762E-79
  -5.900  0.4905E-80  0.1767E-79
  -5.890  0.4900E-80  0.1772E-79
  -5.880  0.4895E-80  0.1777E-79
  -5.870  0.4890E-80  0.1782E-79
  -5.860  0.4885E-80  0.1787E-79
  -5.850  0.4880E-80  0.1791E-79
  -5.840  0.4875E-80  0.1796E-79
  -5.830  0.4870E-80  0.1801E-79
  -5.820  0.4865E-80  0.1806E-79
  -5.810  0.4860E-80  0.1811E-79
  -5.800  0.4855E-80  0.1816E-79
  -5.790  0.4850E-80  0.1821E-79
  -5.780  0.4845E-80  0.1825E-79
  -5.770  0.4840E-80  0.1830E-79
  -5.760  0.6870E-78  0.2517E-79
  -5.750  0.1632E-69  0.1632E-71
  -5.740  0.1322E-61  0.1322E-63
  -5.730  0.3631E-54  0.3631E-56
  -5.720  0.3378E-47  0.3378E-49
  -5.710  0.1064E-40  0.1064E-42
  -5.700  0.1135E-34  0.1135E-36
  -5.690  0.4100E-29  0.4100E-31
  -5.680  0.5011E-24  0.5011E-26
  -5.670  0.2072E-19  0.2072E-21
  -5.660  0.2896E-15  0.2896E-17
  -5.650  0.1367E-11  0.1368E-13
  -5.640  0.2179E-08  0.2180E-10
  -5.630  0.1171E-05  0.1173E-07
  -5.620  0.2122E-03  0.2133E-05
  -5.610  0.1298E-01  0.1319E-03
  -5.600  0.2690E+00  0.2822E-02
  -5.590  0.1905E+01  0.2187E-01
  -5.580  0.4657E+01  0.6844E-01
  -5.570  0.4165E+01  0.1101E+00
  -5.560  0.2481E+01  0.1349E+00
  -5.550  0.2273E+01  0.1576E+00
  -5.540  0.1393E+01  0.1716E+00
  -5.530  0.1341E+01  0.1850E+00
  -5.520  0.2108E+01  0.2061E+00
  -5.510  0.1767E+01  0.2237E+00
  -5.500  0.6091E+00  0.2298E+00
  -5.490  0.1075E+01  0.2406E+00
  -5.480  0.1137E+01  0.2519E+00
  -5.470  0.1902E+01  0.2710E+00
  -5.460  0.1664E+01  0.2876E+00
  -5.450  0.2052E+00  0.2897E+00
  -5.440  0.5393E+00  0.2951E+00
  -5.430  0.1489E+01  0.3100E+00
  -5.420  0.2797E+01  0.3379E+00
  -5.410  0.5972E+01  0.3976E+00
  -5.400  0.5305E+01  0.4507E+00
  -5.390  0.2630E+01  0.4770E+00
  -5.380  0.1420E+01  0.4912E+00
  -5.370  0.1507E+01  0.5062E+00
  -5.360  0.2720E+01  0.5334E+00
  -5.350  0.2565E+01  0.5591E+00
  -5.340  0.2123E+01  0.5803E+00
  -5.330  0.1873E+01  0.5991E+00
  -5.320  0.1661E+01  0.6157E+00
  -5.310  0.1473E+01  0.6304E+00
  -5.300  0.1269E+01  0.6431E+00
  -5.290  0.1362E+01  0.6567E+00
  -5.280  0.1880E+01  0.6755E+00
  -5.270  0.1986E+01  0.6954E+00
  -5.260  0.1479E+01  0.7101E+00
  -5.250  0.1396E+01  0.7241E+00
  -5.240  0.2177E+01  0.7459E+00
  -5.230  0.3323E+01  0.7791E+00
  -5.220  0.4713E+01  0.8262E+00
  -5.210  0.4254E+01  0.8688E+00
  -5.200  0.2496E+01  0.8937E+00
  -5.190  0.4187E+01  0.9356E+00
  -5.180  0.6817E+01  0.1004E+01
  -5.170  0.3737E+01  0.1041E+01
  -5.160  0.4861E+00  0.1046E+01
  -5.150  0.1258E+01  0.1059E+01
  -5.140  0.2211E+01  0.1081E+01
  -5.130  0.2740E+01  0.1108E+01
  -5.120  0.2940E+01  0.1138E+01
  -5.110  0.3168E+01  0.1169E+01
  -5.100  0.3425E+01  0.1203E+01
  -5.090  0.1537E+01  0.1219E+01
  -5.080  0.1802E+01  0.1237E+01
  -5.070  0.3364E+01  0.1270E+01
  -5.060  0.1391E+01  0.1284E+01
  -5.050  0.1296E+01  0.1297E+01
  -5.040  0.2359E+01  0.1321E+01
  -5.030  0.1738E+01  0.1338E+01
  -5.020  0.2960E+01  0.1368E+01
  -5.010  0.3665E+01  0.1405E+01
  -5.000  0.1505E+01  0.1420E+01
  -4.990  0.1436E+01  0.1434E+01
  -4.980  0.2642E+01  0.1460E+01
  -4.970  0.1771E+01  0.1478E+01
  -4.960  0.9631E+00  0.1488E+01
  -4.950  0.2746E+01  0.1515E+01
  -4.940  0.3404E+01  0.1549E+01
  -4.930  0.1666E+01  0.1566E+01
  -4.920  0.1256E+01  0.1578E+01
  -4.910  0.3790E+01  0.1616E+01
  -4.900  0.4855E+01  0.1665E+01
  -4.890  0.4815E+01  0.1713E+01
  -4.880  0.4464E+01  0.1758E+01
  -4.870  0.2554E+01  0.1783E+01
  -4.860  0.3500E+01  0.1818E+01
  -4.850  0.4793E+01  0.1866E+01
  -4.840  0.3361E+01  0.1900E+01
  -4.830  0.1325E+01  0.1913E+01
  -4.820  0.1899E+01  0.1932E+01
  -4.810  0.3922E+01  0.1971E+01
  -4.800  0.3721E+01  0.2008E+01
  -4.790  0.2928E+01  0.2038E+01
  -4.780  0.4413E+01  0.2082E+01
  -4.770  0.6111E+01  0.2143E+01
  -4.760  0.5927E+01  0.2202E+01
  -4.750  0.2308E+01  0.2225E+01
  -4.740  0.4761E+00  0.2230E+01
  -4.730  0.2026E+01  0.2250E+01
  -4.720  0.3429E+01  0.2285E+01
  -4.710  0.2530E+01  0.2310E+01
  -4.700  0.3811E+01  0.2348E+01
  -4.690  0.4389E+01  0.2392E+01
  -4.680  0.3160E+01  0.2424E+01
  -4.670  0.2015E+01  0.2444E+01
  -4.660  0.8837E+00  0.2453E+01
  -4.650  0.1301E+01  0.2466E+01
  -4.640  0.2519E+01  0.2491E+01
  -4.630  0.3803E+01  0.2529E+01
  -4.620  0.2713E+01  0.2556E+01
  -4.610  0.2682E+01  0.2583E+01
  -4.600  0.3619E+01  0.2619E+01
  -4.590  0.4199E+01  0.2661E+01
  -4.580  0.4277E+01  0.2704E+01
  -4.570  0.2522E+01  0.2729E+01
  -4.560  0.1218E+01  0.2741E+01
  -4.550  0.7759E+00  0.2749E+01
  -4.540  0.8198E-01  0.2750E+01
  -4.530  0.3942E+00  0.2754E+01
  -4.520  0.1596E+01  0.2770E+01
  -4.510  0.2219E+01  0.2792E+01
  -4.500  0.1933E+01  0.2811E+01
  -4.490  0.9778E+00  0.2821E+01
  -4.480  0.1487E+01  0.2836E+01
  -4.470  0.2120E+01  0.2857E+01
  -4.460  0.1059E+01  0.2868E+01
  -4.450  0.9599E+00  0.2877E+01
  -4.440  0.4168E+00  0.2881E+01
  -4.430 -0.7185E-01  0.2881E+01
  -4.420  0.7073E+00  0.2888E+01
  -4.410  0.2684E+01  0.2914E+01
  -4.400  0.3018E+01  0.2945E+01
  -4.390  0.5872E+00  0.2951E+01
  -4.380  0.1776E+00  0.2952E+01
  -4.370  0.1479E+01  0.2967E+01
  -4.360  0.1751E+01  0.2985E+01
  -4.350  0.1002E+01  0.2995E+01
  -4.340  0.9141E+00  0.3004E+01
  -4.330  0.9472E+00  0.3013E+01
  -4.320  0.6056E+00  0.3019E+01
  -4.310  0.1096E+01  0.3030E+01
  -4.300  0.4804E+00  0.3035E+01
  -4.290 -0.1434E+00  0.3034E+01
  -4.280 -0.5635E-01  0.3033E+01
  -4.270  0.1037E+00  0.3034E+01
  -4.260  0.6799E+00  0.3041E+01
  -4.250  0.1212E+01  0.3053E+01
  -4.240  0.3969E+00  0.3057E+01
  -4.230 -0.1506E+00  0.3055E+01
  -4.220 -0.5123E-01  0.3055E+01
  -4.210 -0.3369E-02  0.3055E+01
  -4.200 -0.5447E-04  0.3055E+01
  -4.190  0.9312E-03  0.3055E+01
  -4.180  0.3160E-01  0.3055E+01
  -4.170  0.3406E+00  0.3059E+01
  -4.160  0.1110E+01  0.3070E+01
  -4.150  0.1043E+01  0.3080E+01
  -4.140  0.7822E+00  0.3088E+01
  -4.130  0.1054E+01  0.3099E+01
  -4.120  0.2221E+00  0.3101E+01
  -4.110 -0.1502E+00  0.3099E+01
  -4.100 -0.3606E-01  0.3099E+01
  -4.090 -0.1712E-02  0.3099E+01
  -4.080  0.1014E-01  0.3099E+01
  -4.070  0.1660E+00  0.3101E+01
  -4.060  0.8349E+00  0.3109E+01
  -4.050  0.1154E+01  0.3121E+01
  -4.040  0.2173E+00  0.3123E+01
  -4.030 -0.1487E+00  0.3121E+01
  -4.020 -0.3441E-01  0.3121E+01
  -4.010 -0.1776E-02  0.3121E+01
  -4.000 -0.2685E-04  0.3121E+01
  -3.990  0.1085E-04  0.3121E+01
  -3.980  0.1153E-02  0.3121E+01
  -3.970  0.4060E-01  0.3121E+01
  -3.960  0.4771E+00  0.3126E+01
  -3.950  0.1828E+01  0.3144E+01
  -3.940  0.2060E+01  0.3165E+01
  -3.930  0.3090E+00  0.3168E+01
  -3.920 -0.2571E+00  0.3165E+01
  -3.910 -0.6016E-01  0.3165E+01
  -3.900 -0.3372E-02  0.3165E+01
  -3.890 -0.5734E-04  0.3165E+01
  -3.880 -0.3054E-08  0.3165E+01
  -3.870  0.6446E-04  0.3165E+01
  -3.860  0.4485E-02  0.3165E+01
  -3.850  0.1053E+00  0.3166E+01
  -3.840  0.8580E+00  0.3175E+01
  -3.830  0.2554E+01  0.3200E+01
  -3.820  0.2943E+01  0.3229E+01
  -3.810  0.2365E+01  0.3253E+01
  -3.800  0.5943E+01  0.3313E+01
  -3.790  0.9242E+01  0.3405E+01
  -3.780  0.6616E+01  0.3471E+01
  -3.770  0.3660E+01  0.3508E+01
  -3.760  0.4251E+01  0.3550E+01
  -3.750  0.4469E+01  0.3595E+01
  -3.740  0.3762E+01  0.3633E+01
  -3.730  0.2466E+01  0.3657E+01
  -3.720  0.2198E+01  0.3679E+01
  -3.710  0.4166E+01  0.3721E+01
  -3.700  0.4740E+01  0.3768E+01
  -3.690  0.2930E+01  0.3798E+01
  -3.680  0.3790E+01  0.3835E+01
  -3.670  0.4574E+01  0.3881E+01
  -3.660  0.2950E+01  0.3911E+01
  -3.650  0.3222E+01  0.3943E+01
  -3.640  0.4221E+01  0.3985E+01
  -3.630  0.4492E+01  0.4030E+01
  -3.620  0.6311E+01  0.4093E+01
  -3.610  0.4887E+01  0.4142E+01
  -3.600  0.1435E+01  0.4156E+01
  -3.590  0.1108E+01  0.4167E+01
  -3.580  0.2715E+01  0.4195E+01
  -3.570  0.4440E+01  0.4239E+01
  -3.560  0.3530E+01  0.4274E+01
  -3.550  0.2345E+01  0.4298E+01
  -3.540  0.1445E+01  0.4312E+01
  -3.530  0.3873E+00  0.4316E+01
  -3.520  0.9829E+00  0.4326E+01
  -3.510  0.6054E+00  0.4332E+01
  -3.500  0.2513E+00  0.4334E+01
  -3.490  0.1968E+01  0.4354E+01
  -3.480  0.3449E+01  0.4389E+01
  -3.470  0.1891E+01  0.4408E+01
  -3.460  0.1568E+01  0.4423E+01
  -3.450  0.2301E+01  0.4446E+01
  -3.440  0.2217E+01  0.4468E+01
  -3.430  0.2307E+01  0.4492E+01
  -3.420  0.2478E+01  0.4516E+01
  -3.410  0.1521E+01  0.4531E+01
  -3.400  0.5239E+00  0.4537E+01
  -3.390  0.2088E+01  0.4558E+01
  -3.380  0.2710E+01  0.4585E+01
  -3.370  0.1137E+01  0.4596E+01
  -3.360  0.9201E-01  0.4597E+01
  -3.350  0.8055E+00  0.4605E+01
  -3.340  0.2604E+01  0.4631E+01
  -3.330  0.2699E+01  0.4658E+01
  -3.320  0.8751E+00  0.4667E+01
  -3.310  0.1114E+01  0.4678E+01
  -3.300  0.3138E+01  0.4709E+01
  -3.290  0.3584E+01  0.4745E+01
  -3.280  0.1631E+01  0.4761E+01
  -3.270  0.2135E+01  0.4783E+01
  -3.260  0.2820E+01  0.4811E+01
  -3.250  0.1101E+01  0.4822E+01
  -3.240  0.1029E+01  0.4832E+01
  -3.230  0.1702E+01  0.4849E+01
  -3.220  0.1617E+01  0.4866E+01
  -3.210  0.2619E+01  0.4892E+01
  -3.200  0.3933E+01  0.4931E+01
  -3.190  0.2973E+01  0.4961E+01
  -3.180  0.3265E+01  0.4993E+01
  -3.170  0.3747E+01  0.5031E+01
  -3.160  0.9287E+00  0.5040E+01
  -3.150  0.2509E+00  0.5043E+01
  -3.140  0.2482E+01  0.5068E+01
  -3.130  0.2987E+01  0.5097E+01
  -3.120  0.6247E+00  0.5104E+01
  -3.110 -0.2817E+00  0.5101E+01
  -3.100  0.6061E+00  0.5107E+01
  -3.090  0.2259E+01  0.5129E+01
  -3.080  0.2473E+01  0.5154E+01
  -3.070  0.1495E+01  0.5169E+01
  -3.060  0.1950E+01  0.5189E+01
  -3.050  0.3829E+01  0.5227E+01
  -3.040  0.3914E+01  0.5266E+01
  -3.030  0.3237E+01  0.5298E+01
  -3.020  0.4320E+01  0.5342E+01
  -3.010  0.2772E+01  0.5369E+01
  -3.000 -0.1377E+00  0.5368E+01
  -2.990  0.5102E+00  0.5373E+01
  -2.980  0.2771E+01  0.5401E+01
  -2.970  0.3334E+01  0.5434E+01
  -2.960  0.1830E+01  0.5452E+01
  -2.950  0.9169E+00  0.5462E+01
  -2.940  0.1798E+01  0.5480E+01
  -2.930  0.2321E+01  0.5503E+01
  -2.920  0.1477E+01  0.5518E+01
  -2.910  0.9350E+00  0.5527E+01
  -2.900  0.2624E+01  0.5553E+01
  -2.890  0.3296E+01  0.5586E+01
  -2.880  0.1429E+01  0.5600E+01
  -2.870  0.1532E+01  0.5616E+01
  -2.860  0.5397E+01  0.5670E+01
  -2.850  0.1212E+02  0.5791E+01
  -2.840  0.1184E+02  0.5909E+01
  -2.830  0.8149E+01  0.5991E+01
  -2.820  0.8097E+01  0.6072E+01
  -2.810  0.5848E+01  0.6130E+01
  -2.800  0.2945E+01  0.6160E+01
  -2.790  0.4168E+01  0.6201E+01
  -2.780  0.5212E+01  0.6253E+01
  -2.770  0.3610E+01  0.6290E+01
  -2.760  0.3329E+01  0.6323E+01
  -2.750  0.3728E+01  0.6360E+01
  -2.740  0.3694E+01  0.6397E+01
  -2.730  0.3229E+01  0.6429E+01
  -2.720  0.2062E+01  0.6450E+01
  -2.710  0.1974E+01  0.6470E+01
  -2.700  0.2944E+01  0.6499E+01
  -2.690  0.4097E+01  0.6540E+01
  -2.680  0.2416E+01  0.6564E+01
  -2.670  0.2466E+01  0.6589E+01
  -2.660  0.3778E+01  0.6627E+01
  -2.650  0.3154E+01  0.6658E+01
  -2.640  0.2902E+01  0.6687E+01
  -2.630  0.4915E+01  0.6736E+01
  -2.620  0.4556E+01  0.6782E+01
  -2.610  0.3212E+01  0.6814E+01
  -2.600  0.4943E+01  0.6864E+01
  -2.590  0.4854E+01  0.6912E+01
  -2.580  0.1860E+01  0.6931E+01
  -2.570  0.3660E+00  0.6934E+01
  -2.560  0.1394E+01  0.6948E+01
  -2.550  0.2105E+01  0.6969E+01
  -2.540  0.2502E+01  0.6994E+01
  -2.530  0.1885E+01  0.7013E+01
  -2.520  0.4691E+00  0.7018E+01
  -2.510  0.8820E+00  0.7027E+01
  -2.500  0.1369E+01  0.7040E+01
  -2.490  0.1993E+01  0.7060E+01
  -2.480  0.2335E+01  0.7084E+01
  -2.470  0.2185E+01  0.7106E+01
  -2.460  0.2862E+01  0.7134E+01
  -2.450  0.1379E+01  0.7148E+01
  -2.440  0.5751E+00  0.7154E+01
  -2.430  0.1578E+01  0.7169E+01
  -2.420  0.1589E+01  0.7185E+01
  -2.410  0.4279E+00  0.7190E+01
  -2.400  0.1110E+00  0.7191E+01
  -2.390  0.1550E+01  0.7206E+01
  -2.380  0.2780E+01  0.7234E+01
  -2.370  0.1820E+01  0.7252E+01
  -2.360  0.1485E+01  0.7267E+01
  -2.350  0.3064E+01  0.7298E+01
  -2.340  0.2923E+01  0.7327E+01
  -2.330  0.1350E+01  0.7340E+01
  -2.320  0.1417E+01  0.7355E+01
  -2.310  0.9657E+00  0.7364E+01
  -2.300  0.6304E-01  0.7365E+01
  -2.290  0.4098E+00  0.7369E+01
  -2.280  0.2418E+01  0.7393E+01
  -2.270  0.4431E+01  0.7437E+01
  -2.260  0.3410E+01  0.7472E+01
  -2.250  0.1528E+01  0.7487E+01
  -2.240  0.3889E+01  0.7526E+01
  -2.230  0.8113E+01  0.7607E+01
  -2.220  0.7504E+01  0.7682E+01
  -2.210  0.4629E+01  0.7728E+01
  -2.200  0.3118E+01  0.7759E+01
  -2.190  0.3408E+01  0.7794E+01
  -2.180  0.2784E+01  0.7821E+01
  -2.170  0.1021E+01  0.7832E+01
  -2.160  0.9006E+00  0.7841E+01
  -2.150  0.9475E+00  0.7850E+01
  -2.140  0.1225E+01  0.7862E+01
  -2.130  0.2539E+01  0.7888E+01
  -2.120  0.2230E+01  0.7910E+01
  -2.110  0.1744E+01  0.7927E+01
  -2.100  0.1206E+01  0.7939E+01
  -2.090  0.1769E+01  0.7957E+01
  -2.080  0.3751E+01  0.7995E+01
  -2.070  0.2596E+01  0.8021E+01
  -2.060  0.1105E+01  0.8032E+01
  -2.050  0.1836E+01  0.8050E+01
  -2.040  0.1870E+01  0.8069E+01
  -2.030  0.7958E+00  0.8077E+01
  -2.020  0.2475E+01  0.8101E+01
  -2.010  0.3451E+01  0.8136E+01
  -2.000  0.1812E+01  0.8154E+01
  -1.990  0.3010E+00  0.8157E+01
  -1.980 -0.2184E+00  0.8155E+01
  -1.970  0.1163E+00  0.8156E+01
  -1.960  0.1255E+01  0.8169E+01
  -1.950  0.3000E+01  0.8199E+01
  -1.940  0.2754E+01  0.8226E+01
  -1.930  0.1248E+01  0.8239E+01
  -1.920  0.7465E+00  0.8246E+01
  -1.910  0.1434E+01  0.8260E+01
  -1.900  0.3457E+01  0.8295E+01
  -1.890  0.2110E+01  0.8316E+01
  -1.880  0.1270E+01  0.8329E+01
  -1.870  0.3214E+01  0.8361E+01
  -1.860  0.1832E+01  0.8379E+01
  -1.850  0.1724E+00  0.8381E+01
  -1.840  0.2362E+01  0.8405E+01
  -1.830  0.5307E+01  0.8458E+01
  -1.820  0.4378E+01  0.8501E+01
  -1.810  0.2288E+01  0.8524E+01
  -1.800  0.2199E+01  0.8546E+01
  -1.790  0.3121E+01  0.8578E+01
  -1.780  0.3459E+01  0.8612E+01
  -1.770  0.3685E+01  0.8649E+01
  -1.760  0.3609E+01  0.8685E+01
  -1.750  0.2394E+01  0.8709E+01
  -1.740  0.3569E+01  0.8745E+01
  -1.730  0.3014E+01  0.8775E+01
  -1.720  0.3154E+01  0.8806E+01
  -1.710  0.5368E+01  0.8860E+01
  -1.700  0.3312E+01  0.8893E+01
  -1.690  0.8577E+00  0.8902E+01
  -1.680  0.5184E+00  0.8907E+01
  -1.670  0.1115E+01  0.8918E+01
  -1.660  0.2502E+01  0.8943E+01
  -1.650  0.3607E+01  0.8979E+01
  -1.640  0.3946E+01  0.9019E+01
  -1.630  0.5067E+01  0.9069E+01
  -1.620  0.4869E+01  0.9118E+01
  -1.610  0.3168E+01  0.9150E+01
  -1.600  0.2331E+01  0.9173E+01
  -1.590  0.1808E+01  0.9191E+01
  -1.580  0.4505E+01  0.9236E+01
  -1.570  0.9854E+01  0.9335E+01
  -1.560  0.1376E+02  0.9472E+01
  -1.550  0.1383E+02  0.9611E+01
  -1.540  0.1463E+02  0.9757E+01
  -1.530  0.1047E+02  0.9861E+01
  -1.520  0.2127E+01  0.9883E+01
  -1.510 -0.1131E+00  0.9882E+01
  -1.500  0.2305E+01  0.9905E+01
  -1.490  0.4359E+01  0.9948E+01
  -1.480  0.2938E+01  0.9978E+01
  -1.470  0.1983E+01  0.9997E+01
  -1.460  0.8734E+00  0.1001E+02
  -1.450  0.1260E+01  0.1002E+02
  -1.440  0.4149E+01  0.1006E+02
  -1.430  0.3253E+01  0.1009E+02
  -1.420  0.3909E-02  0.1009E+02
  -1.410 -0.1554E+00  0.1009E+02
  -1.400  0.1324E+01  0.1010E+02
  -1.390  0.2313E+01  0.1013E+02
  -1.380  0.1021E+01  0.1014E+02
  -1.370  0.7372E+00  0.1015E+02
  -1.360  0.1681E+01  0.1016E+02
  -1.350  0.2450E+01  0.1019E+02
  -1.340  0.2576E+01  0.1021E+02
  -1.330  0.2237E+01  0.1023E+02
  -1.320  0.1902E+01  0.1025E+02
  -1.310  0.1347E+01  0.1027E+02
  -1.300  0.1202E+01  0.1028E+02
  -1.290  0.8146E+00  0.1029E+02
  -1.280 -0.1130E-01  0.1029E+02
  -1.270  0.2217E-01  0.1029E+02
  -1.260  0.1142E+01  0.1030E+02
  -1.250  0.3586E+01  0.1033E+02
  -1.240  0.5010E+01  0.1038E+02
  -1.230  0.3328E+01  0.1042E+02
  -1.220  0.5117E+00  0.1042E+02
  -1.210 -0.4170E+00  0.1042E+02
  -1.200  0.3962E-01  0.1042E+02
  -1.190  0.1088E+01  0.1043E+02
  -1.180  0.2400E+01  0.1045E+02
  -1.170  0.2334E+01  0.1048E+02
  -1.160  0.2274E+01  0.1050E+02
  -1.150  0.1270E+01  0.1051E+02
  -1.140  0.1615E+01  0.1053E+02
  -1.130  0.3533E+01  0.1056E+02
  -1.120  0.2664E+01  0.1059E+02
  -1.110  0.2483E+01  0.1062E+02
  -1.100  0.2112E+01  0.1064E+02
  -1.090  0.1608E+01  0.1065E+02
  -1.080  0.4131E+01  0.1069E+02
  -1.070  0.6790E+01  0.1076E+02
  -1.060  0.3937E+01  0.1080E+02
  -1.050  0.1119E+01  0.1081E+02
  -1.040  0.3161E+01  0.1084E+02
  -1.030  0.3863E+01  0.1088E+02
  -1.020  0.1936E+01  0.1090E+02
  -1.010  0.2020E+00  0.1090E+02
  -1.000 -0.8251E-01  0.1090E+02
  -0.990  0.1185E+01  0.1092E+02
  -0.980  0.3076E+01  0.1095E+02
  -0.970  0.2485E+01  0.1097E+02
  -0.960  0.9644E+00  0.1098E+02
  -0.950  0.1390E+01  0.1099E+02
  -0.940  0.1414E+01  0.1101E+02
  -0.930  0.7270E+00  0.1102E+02
  -0.920  0.1306E+01  0.1103E+02
  -0.910  0.3441E+01  0.1106E+02
  -0.900  0.3503E+01  0.1110E+02
  -0.890  0.6096E+00  0.1110E+02
  -0.880 -0.1437E+00  0.1110E+02
  -0.870  0.1152E+01  0.1111E+02
  -0.860  0.1947E+01  0.1113E+02
  -0.850  0.1833E+01  0.1115E+02
  -0.840  0.2367E+01  0.1118E+02
  -0.830  0.2928E+01  0.1121E+02
  -0.820  0.2129E+01  0.1123E+02
  -0.810  0.7297E+00  0.1123E+02
  -0.800  0.1332E+00  0.1124E+02
  -0.790  0.1885E+01  0.1125E+02
  -0.780  0.4202E+01  0.1130E+02
  -0.770  0.3006E+01  0.1133E+02
  -0.760  0.1153E+01  0.1134E+02
  -0.750  0.7338E+00  0.1135E+02
  -0.740  0.1221E+01  0.1136E+02
  -0.730  0.3002E+01  0.1139E+02
  -0.720  0.3369E+01  0.1142E+02
  -0.710  0.3360E+01  0.1145E+02
  -0.700  0.3942E+01  0.1149E+02
  -0.690  0.3317E+01  0.1153E+02
  -0.680  0.2480E+01  0.1155E+02
  -0.670  0.2030E+01  0.1157E+02
  -0.660  0.3237E+01  0.1161E+02
  -0.650  0.6800E+01  0.1167E+02
  -0.640  0.5040E+01  0.1172E+02
  -0.630  0.8207E+00  0.1173E+02
  -0.620  0.1640E+01  0.1175E+02
  -0.610  0.3115E+01  0.1178E+02
  -0.600  0.3631E+01  0.1182E+02
  -0.590  0.2140E+01  0.1184E+02
  -0.580  0.2162E+01  0.1186E+02
  -0.570  0.4709E+01  0.1191E+02
  -0.560  0.4892E+01  0.1195E+02
  -0.550  0.2445E+01  0.1198E+02
  -0.540  0.3664E+01  0.1202E+02
  -0.530  0.6030E+01  0.1208E+02
  -0.520  0.4914E+01  0.1213E+02
  -0.510  0.2610E+01  0.1215E+02
  -0.500  0.2495E+01  0.1218E+02
  -0.490  0.2135E+01  0.1220E+02
  -0.480  0.7725E+00  0.1221E+02
  -0.470  0.8457E+00  0.1221E+02
  -0.460  0.9034E+00  0.1222E+02
  -0.450  0.8571E+00  0.1223E+02
  -0.440  0.2400E+01  0.1226E+02
  -0.430  0.2731E+01  0.1228E+02
  -0.420  0.1840E+01  0.1230E+02
  -0.410  0.3135E+01  0.1233E+02
  -0.400  0.3782E+01  0.1237E+02
  -0.390  0.9788E+00  0.1238E+02
  -0.380 -0.3073E+00  0.1238E+02
  -0.370  0.9302E+00  0.1239E+02
  -0.360  0.2508E+01  0.1241E+02
  -0.350  0.1815E+01  0.1243E+02
  -0.340  0.1070E+01  0.1244E+02
  -0.330  0.1245E+01  0.1245E+02
  -0.320  0.2619E+01  0.1248E+02
  -0.310  0.2958E+01  0.1251E+02
  -0.300  0.1898E+01  0.1253E+02
  -0.290  0.1924E+01  0.1255E+02
  -0.280  0.1620E+01  0.1256E+02
  -0.270  0.1660E+01  0.1258E+02
  -0.260  0.1962E+01  0.1260E+02
  -0.250  0.2075E+01  0.1262E+02
  -0.240  0.1791E+01  0.1264E+02
  -0.230  0.1209E+01  0.1265E+02
  -0.220  0.1097E+01  0.1266E+02
  -0.210  0.9198E+00  0.1267E+02
  -0.200  0.1090E+01  0.1268E+02
  -0.190  0.7979E+00  0.1269E+02
  -0.180  0.1780E+01  0.1271E+02
  -0.170  0.2958E+01  0.1274E+02
  -0.160  0.1553E+01  0.1275E+02
  -0.150  0.8577E-01  0.1275E+02
  -0.140  0.1303E+01  0.1277E+02
  -0.130  0.2364E+01  0.1279E+02
  -0.120  0.7761E+00  0.1280E+02
  -0.110  0.7824E+00  0.1280E+02
  -0.100  0.2228E+01  0.1283E+02
  -0.090  0.1909E+01  0.1285E+02
  -0.080  0.2056E+01  0.1287E+02
  -0.070  0.1783E+01  0.1288E+02
  -0.060  0.1138E+01  0.1290E+02
  -0.050  0.2250E+01  0.1292E+02
  -0.040  0.1668E+01  0.1294E+02
  -0.030  0.1124E+01  0.1295E+02
  -0.020  0.1379E+01  0.1296E+02
  -0.010  0.2494E+01  0.1299E+02
  -0.000  0.2887E+01  0.1301E+02
   0.010  0.2605E+01  0.1304E+02
   0.020  0.2287E+01  0.1306E+02
   0.030  0.2258E+01  0.1309E+02
   0.040  0.1425E+01  0.1310E+02
   0.050  0.1095E+01  0.1311E+02
   0.060  0.1300E+01  0.1312E+02
   0.070  0.1946E+01  0.1314E+02
   0.080  0.3850E+01  0.1318E+02
   0.090  0.4055E+01  0.1322E+02
   0.100  0.1714E+01  0.1324E+02
   0.110  0.6715E+00  0.1325E+02
   0.120  0.1073E+01  0.1326E+02
   0.130  0.1751E+01  0.1327E+02
   0.140  0.3413E+01  0.1331E+02
   0.150  0.2310E+01  0.1333E+02
   0.160  0.1131E+01  0.1334E+02
   0.170  0.1826E+01  0.1336E+02
   0.180  0.3804E+01  0.1340E+02
   0.190  0.3376E+01  0.1343E+02
   0.200  0.1092E+01  0.1344E+02
   0.210  0.2032E+01  0.1346E+02
   0.220  0.2922E+01  0.1349E+02
   0.230  0.2603E+01  0.1352E+02
   0.240  0.3104E+01  0.1355E+02
   0.250  0.4106E+01  0.1359E+02
   0.260  0.5956E+01  0.1365E+02
   0.270  0.7119E+01  0.1372E+02
   0.280  0.7756E+01  0.1380E+02
   0.290  0.3740E+01  0.1384E+02
   0.300 -0.5394E-01  0.1384E+02
   0.310  0.1052E+01  0.1385E+02
   0.320  0.2016E+01  0.1387E+02
   0.330  0.1944E+01  0.1389E+02
   0.340  0.1205E+01  0.1390E+02
   0.350  0.1484E+01  0.1391E+02
   0.360  0.2820E+01  0.1394E+02
   0.370  0.3632E+01  0.1398E+02
   0.380  0.2389E+01  0.1400E+02
   0.390  0.2197E+00  0.1400E+02
   0.400 -0.3356E+00  0.1400E+02
   0.410 -0.7804E-01  0.1400E+02
   0.420 -0.4482E-02  0.1400E+02
   0.430 -0.7794E-04  0.1400E+02
   0.440 -0.4346E-06  0.1400E+02
   0.450 -0.7959E-09  0.1400E+02
   0.460 -0.4841E-12  0.1400E+02
   0.470 -0.9842E-16  0.1400E+02
   0.480 -0.6710E-20  0.1400E+02
   0.490 -0.1538E-24  0.1400E+02
   0.500 -0.1187E-29  0.1400E+02
   0.510 -0.3087E-35  0.1400E+02
   0.520 -0.2709E-41  0.1400E+02
   0.530 -0.8026E-48  0.1400E+02
   0.540 -0.8034E-55  0.1400E+02
   0.550 -0.2718E-62  0.1400E+02
   0.560 -0.3110E-70  0.1400E+02
   0.570 -0.1187E-78  0.1400E+02
   0.580  0.1658E-80  0.1400E+02
   0.590  0.1653E-80  0.1400E+02
   0.600  0.1648E-80  0.1400E+02
   0.610  0.1643E-80  0.1400E+02
   0.620  0.1638E-80  0.1400E+02
   0.630  0.1633E-80  0.1400E+02
   0.640  0.1628E-80  0.1400E+02
   0.650  0.1623E-80  0.1400E+02
   0.660  0.1618E-80  0.1400E+02
   0.670  0.1613E-80  0.1400E+02
   0.680  0.1608E-80  0.1400E+02
   0.690  0.1603E-80  0.1400E+02
   0.700  0.1598E-80  0.1400E+02
   0.710  0.1593E-80  0.1400E+02
   0.720  0.1588E-80  0.1400E+02
   0.730  0.1583E-80  0.1400E+02
   0.740  0.1578E-80  0.1400E+02
   0.750  0.1573E-80  0.1400E+02
   0.760  0.1568E-80  0.1400E+02
   0.770  0.1563E-80  0.1400E+02
   0.780  0.1558E-80  0.1400E+02
   0.790  0.1553E-80  0.1400E+02
   0.800  0.1548E-80  0.1400E+02
   0.810  0.1543E-80  0.1400E+02
   0.820  0.1538E-80  0.1400E+02
   0.830  0.1533E-80  0.1400E+02
   0.840  0.1528E-80  0.1400E+02
   0.850  0.1523E-80  0.1400E+02
   0.860  0.1518E-80  0.1400E+02
   0.870  0.1513E-80  0.1400E+02
   0.880  0.1508E-80  0.1400E+02
   0.890  0.1503E-80  0.1400E+02
   0.900  0.1498E-80  0.1400E+02
   0.910  0.1493E-80  0.1400E+02
   0.920  0.1488E-80  0.1400E+02
   0.930  0.1483E-80  0.1400E+02
   0.940  0.1478E-80  0.1400E+02
   0.950  0.1473E-80  0.1400E+02
   0.960  0.1468E-80  0.1400E+02
   0.970  0.1463E-80  0.1400E+02
   0.980  0.1458E-80  0.1400E+02
   0.990  0.1453E-80  0.1400E+02
   1.000  0.1448E-80  0.1400E+02
   1.010  0.1443E-80  0.1400E+02
   1.020  0.1438E-80  0.1400E+02
   1.030  0.1433E-80  0.1400E+02
   1.040  0.1428E-80  0.1400E+02
   1.050  0.1423E-80  0.1400E+02
   1.060  0.1418E-80  0.1400E+02
   1.070  0.1413E-80  0.1400E+02
   1.080  0.1408E-80  0.1400E+02
   1.090  0.1403E-80  0.1400E+02
   1.100  0.1398E-80  0.1400E+02
   1.110  0.1392E-80  0.1400E+02
   1.120  0.1387E-80  0.1400E+02
   1.130  0.1382E-80  0.1400E+02
   1.140  0.1377E-80  0.1400E+02
   1.150  0.1372E-80  0.1400E+02
   1.160  0.1367E-80  0.1400E+02
   1.170  0.1362E-80  0.1400E+02
   1.180  0.1357E-80  0.1400E+02
   1.190  0.1352E-80  0.1400E+02
   1.200  0.1347E-80  0.1400E+02
   1.210  0.1342E-80  0.1400E+02
   1.220  0.1337E-80  0.1400E+02
   1.230  0.1332E-80  0.1400E+02
   1.240  0.1327E-80  0.1400E+02
   1.250  0.1322E-80  0.1400E+02
   1.260  0.1317E-80  0.1400E+02
   1.270  0.1312E-80  0.1400E+02
   1.280  0.1307E-80  0.1400E+02
   1.290  0.1302E-80  0.1400E+02
   1.300  0.1297E-80  0.1400E+02
   1.310  0.1292E-80  0.1400E+02
   1.320  0.1287E-80  0.1400E+02
   1.330  0.1282E-80  0.1400E+02
   1.340  0.1277E-80  0.1400E+02
   1.350  0.1272E-80  0.1400E+02
   1.360  0.1267E-80  0.1400E+02
   1.370  0.1262E-80  0.1400E+02
   1.380  0.1257E-80  0.1400E+02
   1.390  0.1252E-80  0.1400E+02
   1.400  0.1247E-80  0.1400E+02
   1.410  0.1242E-80  0.1400E+02
   1.420  0.1237E-80  0.1400E+02
   1.430  0.1232E-80  0.1400E+02
   1.440  0.1227E-80  0.1400E+02
   1.450  0.1222E-80  0.1400E+02
   1.460  0.1217E-80  0.1400E+02
   1.470  0.1212E-80  0.1400E+02
   1.480  0.1207E-80  0.1400E+02
   1.490  0.1202E-80  0.1400E+02
   1.500  0.1197E-80  0.1400E+02
   1.510  0.1192E-80  0.1400E+02
   1.520  0.1187E-80  0.1400E+02
   1.530  0.1182E-80  0.1400E+02
   1.540  0.1177E-80  0.1400E+02
   1.550  0.1172E-80  0.1400E+02
   1.560  0.1167E-80  0.1400E+02
   1.570  0.1162E-80  0.1400E+02
   1.580  0.1157E-80  0.1400E+02
   1.590  0.1152E-80  0.1400E+02
   1.600  0.1147E-80  0.1400E+02
   1.610  0.1142E-80  0.1400E+02
   1.620  0.1137E-80  0.1400E+02
   1.630  0.1132E-80  0.1400E+02
   1.640  0.1127E-80  0.1400E+02
   1.650  0.1122E-80  0.1400E+02
   1.660  0.1117E-80  0.1400E+02
   1.670  0.1112E-80  0.1400E+02
   1.680  0.1107E-80  0.1400E+02
   1.690  0.1102E-80  0.1400E+02
   1.700  0.1097E-80  0.1400E+02
   1.710  0.1092E-80  0.1400E+02
   1.720  0.1087E-80  0.1400E+02
   1.730  0.1082E-80  0.1400E+02
   1.740  0.1077E-80  0.1400E+02
   1.750  0.1072E-80  0.1400E+02
   1.760  0.1067E-80  0.1400E+02
   1.770  0.1062E-80  0.1400E+02
   1.780  0.1057E-80  0.1400E+02
   1.790  0.1052E-80  0.1400E+02
   1.800  0.1047E-80  0.1400E+02
   1.810  0.1042E-80  0.1400E+02
   1.820  0.1037E-80  0.1400E+02
   1.830  0.1032E-80  0.1400E+02
   1.840  0.1027E-80  0.1400E+02
   1.850  0.1022E-80  0.1400E+02
   1.860  0.1017E-80  0.1400E+02
   1.870  0.1012E-80  0.1400E+02
   1.880  0.1007E-80  0.1400E+02
   1.890  0.1002E-80  0.1400E+02
   1.900  0.9967E-81  0.1400E+02
   1.910  0.9917E-81  0.1400E+02
   1.920  0.9866E-81  0.1400E+02
   1.930  0.9816E-81  0.1400E+02
   1.940  0.9766E-81  0.1400E+02
   1.950  0.9716E-81  0.1400E+02
   1.960  0.9666E-81  0.1400E+02
   1.970  0.9616E-81  0.1400E+02
   1.980  0.9566E-81  0.1400E+02
   1.990  0.9516E-81  0.1400E+02
   2.000  0.9466E-81  0.1400E+02
   2.010  0.9416E-81  0.1400E+02
   2.020  0.8652E-80  0.1400E+02
   2.030  0.2339E-71  0.1400E+02
   2.040  0.2401E-63  0.1400E+02
   2.050  0.8337E-56  0.1400E+02
   2.060  0.9794E-49  0.1400E+02
   2.070  0.3891E-42  0.1400E+02
   2.080  0.5224E-36  0.1400E+02
   2.090  0.2370E-30  0.1400E+02
   2.100  0.3629E-25  0.1400E+02
   2.110  0.1876E-20  0.1400E+02
   2.120  0.3270E-16  0.1400E+02
   2.130  0.1921E-12  0.1400E+02
   2.140  0.3803E-09  0.1400E+02
   2.150  0.2534E-06  0.1400E+02
   2.160  0.5683E-04  0.1400E+02
   2.170  0.4280E-02  0.1400E+02
   2.180  0.1079E+00  0.1400E+02
   2.190  0.9089E+00  0.1401E+02
   2.200  0.2635E+01  0.1404E+02
   2.210  0.3225E+01  0.1407E+02
   2.220  0.2364E+01  0.1409E+02
   2.230  0.1154E+01  0.1410E+02
   2.240  0.8230E+00  0.1411E+02
   2.250  0.7850E+00  0.1412E+02
   2.260  0.2039E+01  0.1414E+02
   2.270  0.1684E+01  0.1416E+02
   2.280  0.4569E+00  0.1416E+02
   2.290  0.9944E+00  0.1417E+02
   2.300  0.6450E+00  0.1418E+02
   2.310  0.4320E+00  0.1418E+02
   2.320  0.2622E+01  0.1421E+02
   2.330  0.4243E+01  0.1425E+02
   2.340  0.2735E+01  0.1428E+02
   2.350  0.2203E+01  0.1430E+02
   2.360  0.2360E+01  0.1432E+02
   2.370  0.1031E+01  0.1433E+02
   2.380  0.3229E+00  0.1434E+02
   2.390  0.1498E+01  0.1435E+02
   2.400  0.2199E+01  0.1437E+02
   2.410  0.2142E+01  0.1440E+02
   2.420  0.1638E+01  0.1441E+02
   2.430  0.1207E+01  0.1442E+02
   2.440  0.1647E+01  0.1444E+02
   2.450  0.1963E+01  0.1446E+02
   2.460  0.4767E+00  0.1447E+02
   2.470  0.3909E+00  0.1447E+02
   2.480  0.2088E+01  0.1449E+02
   2.490  0.1877E+01  0.1451E+02
   2.500  0.5151E+00  0.1451E+02
   2.510  0.1761E+01  0.1453E+02
   2.520  0.2892E+01  0.1456E+02
   2.530  0.1487E+01  0.1458E+02
   2.540 -0.5701E-01  0.1457E+02
   2.550  0.7579E+00  0.1458E+02
   2.560  0.2823E+01  0.1461E+02
   2.570  0.3832E+01  0.1465E+02
   2.580  0.3986E+01  0.1469E+02
   2.590  0.4232E+01  0.1473E+02
   2.600  0.3573E+01  0.1477E+02
   2.610  0.2633E+01  0.1479E+02
   2.620  0.3444E+01  0.1483E+02
   2.630  0.3392E+01  0.1486E+02
   2.640  0.2580E+01  0.1489E+02
   2.650  0.2032E+01  0.1491E+02
   2.660  0.2795E+01  0.1494E+02
   2.670  0.3077E+01  0.1497E+02
   2.680  0.1060E+01  0.1498E+02
   2.690  0.1463E+01  0.1499E+02
   2.700  0.3340E+01  0.1503E+02
   2.710  0.5529E+01  0.1508E+02
   2.720  0.7018E+01  0.1515E+02
   2.730  0.5660E+01  0.1521E+02
   2.740  0.4157E+01  0.1525E+02
   2.750  0.3907E+01  0.1529E+02
   2.760  0.4005E+01  0.1533E+02
   2.770  0.5668E+01  0.1538E+02
   2.780  0.7608E+01  0.1546E+02
   2.790  0.1168E+02  0.1558E+02
   2.800  0.1193E+02  0.1570E+02
   2.810  0.4453E+01  0.1574E+02
   2.820  0.7785E+00  0.1575E+02
   2.830  0.8602E+00  0.1576E+02
   2.840  0.8823E+00  0.1577E+02
   2.850  0.1043E+01  0.1578E+02
   2.860  0.5366E+00  0.1578E+02
   2.870 -0.1128E+00  0.1578E+02
   2.880  0.2494E+00  0.1578E+02
   2.890  0.1765E+01  0.1580E+02
   2.900  0.3396E+01  0.1584E+02
   2.910  0.2872E+01  0.1586E+02
   2.920  0.1028E+01  0.1587E+02
   2.930  0.1119E+01  0.1589E+02
   2.940  0.5195E+01  0.1594E+02
   2.950  0.7623E+01  0.1601E+02
   2.960  0.5317E+01  0.1607E+02
   2.970  0.3396E+01  0.1610E+02
   2.980  0.2911E+01  0.1613E+02
   2.990  0.2532E+01  0.1616E+02
   3.000  0.2268E+01  0.1618E+02
   3.010  0.3598E+01  0.1621E+02
   3.020  0.4863E+01  0.1626E+02
   3.030  0.5667E+01  0.1632E+02
   3.040  0.4672E+01  0.1637E+02
   3.050  0.3736E+01  0.1640E+02
   3.060  0.3476E+01  0.1644E+02
   3.070  0.4006E+01  0.1648E+02
   3.080  0.4560E+01  0.1652E+02
   3.090  0.5414E+01  0.1658E+02
   3.100  0.3686E+01  0.1661E+02
   3.110  0.1154E+01  0.1663E+02
   3.120  0.2143E+01  0.1665E+02
   3.130  0.5622E+01  0.1670E+02
   3.140  0.5161E+01  0.1676E+02
   3.150  0.4053E+01  0.1680E+02
   3.160  0.4213E+01  0.1684E+02
   3.170  0.2472E+01  0.1686E+02
   3.180  0.2509E+01  0.1689E+02
   3.190  0.2867E+01  0.1692E+02
   3.200  0.3022E+01  0.1695E+02
   3.210  0.2866E+01  0.1698E+02
   3.220  0.3972E+01  0.1702E+02
   3.230  0.4769E+01  0.1706E+02
   3.240  0.4639E+01  0.1711E+02
   3.250  0.4046E+01  0.1715E+02
   3.260  0.4494E+01  0.1719E+02
   3.270  0.7432E+01  0.1727E+02
   3.280  0.1074E+02  0.1738E+02
   3.290  0.9339E+01  0.1747E+02
   3.300  0.8109E+01  0.1755E+02
   3.310  0.7424E+01  0.1763E+02
   3.320  0.5562E+01  0.1768E+02
   3.330  0.5088E+01  0.1773E+02
   3.340  0.3646E+01  0.1777E+02
   3.350  0.2251E+01  0.1779E+02
   3.360  0.2738E+01  0.1782E+02
   3.370  0.4394E+01  0.1786E+02
   3.380  0.4634E+01  0.1791E+02
   3.390  0.4433E+01  0.1795E+02
   3.400  0.3882E+01  0.1799E+02
   3.410  0.5297E+01  0.1804E+02
   3.420  0.8368E+01  0.1813E+02
   3.430  0.7718E+01  0.1821E+02
   3.440  0.7331E+01  0.1828E+02
   3.450  0.5859E+01  0.1834E+02
   3.460  0.5080E+01  0.1839E+02
   3.470  0.6651E+01  0.1845E+02
   3.480  0.7209E+01  0.1853E+02
   3.490  0.6572E+01  0.1859E+02
   3.500  0.5427E+01  0.1865E+02
   3.510  0.7089E+01  0.1872E+02
   3.520  0.7766E+01  0.1880E+02
   3.530  0.7690E+01  0.1887E+02
   3.540  0.9808E+01  0.1897E+02
   3.550  0.6778E+01  0.1904E+02
   3.560  0.1045E+01  0.1905E+02
   3.570  0.4193E+00  0.1905E+02
   3.580  0.2377E+01  0.1908E+02
   3.590  0.3466E+01  0.1911E+02
   3.600  0.1622E+01  0.1913E+02
   3.610  0.1069E+00  0.1913E+02
   3.620  0.1770E+01  0.1915E+02
   3.630  0.3531E+01  0.1918E+02
   3.640  0.2730E+01  0.1921E+02
   3.650  0.4751E+00  0.1921E+02
   3.660 -0.1240E+00  0.1921E+02
   3.670  0.1238E+01  0.1922E+02
   3.680  0.2783E+01  0.1925E+02
   3.690  0.2114E+01  0.1927E+02
   3.700  0.1686E+01  0.1929E+02
   3.710  0.2617E+01  0.1932E+02
   3.720  0.2474E+01  0.1934E+02
   3.730  0.1781E+01  0.1936E+02
   3.740  0.8388E+00  0.1937E+02
   3.750  0.7105E+00  0.1937E+02
   3.760  0.1749E+01  0.1939E+02
   3.770  0.1577E+01  0.1941E+02
   3.780  0.1189E+01  0.1942E+02
   3.790  0.2628E+01  0.1945E+02
   3.800  0.2889E+01  0.1947E+02
   3.810  0.1662E+01  0.1949E+02
   3.820  0.7441E+00  0.1950E+02
   3.830  0.6593E+00  0.1951E+02
   3.840  0.1521E+01  0.1952E+02
   3.850  0.2161E+01  0.1954E+02
   3.860  0.2024E+01  0.1956E+02
   3.870  0.7759E+00  0.1957E+02
   3.880  0.2143E+01  0.1959E+02
   3.890  0.3608E+01  0.1963E+02
   3.900  0.2352E+01  0.1965E+02
   3.910  0.6030E+00  0.1966E+02
   3.920  0.1015E+01  0.1967E+02
   3.930  0.1653E+01  0.1968E+02
   3.940  0.2022E+01  0.1970E+02
   3.950  0.1320E+01  0.1972E+02
   3.960  0.5806E+00  0.1972E+02
   3.970  0.2147E+01  0.1974E+02
   3.980  0.3010E+01  0.1977E+02
   3.990  0.2502E+01  0.1980E+02
   4.000  0.2061E+01  0.1982E+02
   4.010  0.2208E+01  0.1984E+02
   4.020  0.2081E+01  0.1986E+02
   4.030  0.1941E+01  0.1988E+02
   4.040  0.1562E+01  0.1990E+02
   4.050  0.1980E+01  0.1992E+02
   4.060  0.3342E+01  0.1995E+02
   4.070  0.4297E+01  0.1999E+02
   4.080  0.4663E+01  0.2004E+02
   4.090  0.2687E+01  0.2007E+02
   4.100  0.3244E+00  0.2007E+02
   4.110  0.3204E-01  0.2007E+02
   4.120  0.1105E+01  0.2008E+02
   4.130  0.1354E+01  0.2010E+02
   4.140  0.1979E+01  0.2012E+02
   4.150  0.2005E+01  0.2014E+02
   4.160  0.9822E+00  0.2015E+02
   4.170  0.1363E+01  0.2016E+02
   4.180  0.1333E+01  0.2017E+02
   4.190  0.5382E+00  0.2018E+02
   4.200 -0.5755E-01  0.2018E+02
   4.210  0.5766E+00  0.2018E+02
   4.220  0.1788E+01  0.2020E+02
   4.230  0.1811E+01  0.2022E+02
   4.240  0.9405E+00  0.2023E+02
   4.250  0.1134E+01  0.2024E+02
   4.260  0.1372E+01  0.2025E+02
   4.270  0.1895E+01  0.2027E+02
   4.280  0.1787E+01  0.2029E+02
   4.290  0.1758E+01  0.2031E+02
   4.300  0.2292E+01  0.2033E+02
   4.310  0.1500E+01  0.2035E+02
   4.320  0.2816E+01  0.2037E+02
   4.330  0.4934E+01  0.2042E+02
   4.340  0.3626E+01  0.2046E+02
   4.350  0.1344E+01  0.2047E+02
   4.360  0.1537E+01  0.2049E+02
   4.370  0.2086E+01  0.2051E+02
   4.380  0.1669E+01  0.2053E+02
   4.390  0.1300E+01  0.2054E+02
   4.400  0.2831E+01  0.2057E+02
   4.410  0.2943E+01  0.2060E+02
   4.420  0.9104E+00  0.2061E+02
   4.430  0.1890E+01  0.2063E+02
   4.440  0.1956E+01  0.2064E+02
   4.450  0.1089E+01  0.2066E+02
   4.460  0.1173E+01  0.2067E+02
   4.470  0.1131E+01  0.2068E+02
   4.480  0.4981E+00  0.2068E+02
   4.490 -0.1389E+00  0.2068E+02
   4.500 -0.3917E-01  0.2068E+02
   4.510  0.3889E+00  0.2069E+02
   4.520  0.1525E+01  0.2070E+02
   4.530  0.2026E+01  0.2072E+02
   4.540  0.7245E+00  0.2073E+02
   4.550 -0.1507E+00  0.2073E+02
   4.560  0.3404E+00  0.2073E+02
   4.570  0.1738E+01  0.2075E+02
   4.580  0.2805E+01  0.2078E+02
   4.590  0.2064E+01  0.2080E+02
   4.600  0.1074E+01  0.2081E+02
   4.610  0.8793E+00  0.2082E+02
   4.620  0.1076E+01  0.2083E+02
   4.630  0.3125E+01  0.2086E+02
   4.640  0.3005E+01  0.2089E+02
   4.650  0.1184E+01  0.2090E+02
   4.660  0.4719E+00  0.2090E+02
   4.670  0.5476E+00  0.2091E+02
   4.680  0.1863E+01  0.2093E+02
   4.690  0.1983E+01  0.2095E+02
   4.700  0.1359E+01  0.2096E+02
   4.710  0.1681E+01  0.2098E+02
   4.720  0.1847E+01  0.2100E+02
   4.730  0.1919E+01  0.2102E+02
   4.740  0.2166E+01  0.2104E+02
   4.750  0.2146E+01  0.2106E+02
   4.760  0.1669E+01  0.2108E+02
   4.770  0.1595E+01  0.2109E+02
   4.780  0.2013E+01  0.2111E+02
   4.790  0.1897E+01  0.2113E+02
   4.800  0.1784E+01  0.2115E+02
   4.810  0.3282E+01  0.2118E+02
   4.820  0.5087E+01  0.2123E+02
   4.830  0.4125E+01  0.2127E+02
   4.840  0.4241E+01  0.2132E+02
   4.850  0.2937E+01  0.2135E+02
   4.860  0.1228E-01  0.2135E+02
   4.870  0.1020E+00  0.2135E+02
   4.880  0.1889E+01  0.2137E+02
   4.890  0.2013E+01  0.2139E+02
   4.900  0.1575E+00  0.2139E+02
   4.910 -0.2546E+00  0.2139E+02
   4.920 -0.2270E-01  0.2138E+02
   4.930  0.3522E+00  0.2139E+02
   4.940  0.1686E+01  0.2141E+02
   4.950  0.2261E+01  0.2143E+02
   4.960  0.4317E+00  0.2143E+02
   4.970 -0.2852E+00  0.2143E+02
   4.980 -0.1046E-01  0.2143E+02
   4.990  0.5923E+00  0.2144E+02
   5.000  0.1967E+01  0.2145E+02
   5.010  0.1892E+01  0.2147E+02
   5.020  0.1704E+00  0.2148E+02
   5.030 -0.1713E+00  0.2147E+02
   5.040  0.4824E+00  0.2148E+02
   5.050  0.1312E+01  0.2149E+02
   5.060  0.1280E+01  0.2150E+02
   5.070  0.1091E+01  0.2152E+02
   5.080  0.4315E+00  0.2152E+02
   5.090  0.5054E+00  0.2152E+02
   5.100  0.1169E+01  0.2154E+02
   5.110  0.5289E+00  0.2154E+02
   5.120  0.5481E+00  0.2155E+02
   5.130  0.1242E+01  0.2156E+02
   5.140  0.9794E+00  0.2157E+02
   5.150  0.1067E+01  0.2158E+02
   5.160  0.4597E+00  0.2158E+02
   5.170  0.5177E-01  0.2159E+02
   5.180  0.8615E+00  0.2159E+02
   5.190  0.1379E+01  0.2161E+02
   5.200  0.1172E+01  0.2162E+02
   5.210  0.8519E+00  0.2163E+02
   5.220  0.6907E-01  0.2163E+02
   5.230  0.3977E+00  0.2163E+02
   5.240  0.1220E+01  0.2164E+02
   5.250  0.9478E+00  0.2165E+02
   5.260  0.9769E+00  0.2166E+02
   5.270  0.8576E+00  0.2167E+02
   5.280  0.4057E+00  0.2168E+02
   5.290  0.1070E+01  0.2169E+02
   5.300  0.7263E+00  0.2169E+02
   5.310  0.2005E+00  0.2170E+02
   5.320  0.1080E+01  0.2171E+02
   5.330  0.1645E+01  0.2172E+02
   5.340  0.1214E+01  0.2174E+02
   5.350  0.2571E+00  0.2174E+02
   5.360 -0.7219E-01  0.2174E+02
   5.370  0.8034E+00  0.2175E+02
   5.380  0.2293E+01  0.2177E+02
   5.390  0.1515E+01  0.2178E+02
   5.400 -0.1551E-01  0.2178E+02
   5.410  0.5879E+00  0.2179E+02
   5.420  0.1322E+01  0.2180E+02
   5.430  0.1185E+01  0.2181E+02
   5.440  0.1651E+01  0.2183E+02
   5.450  0.1455E+01  0.2185E+02
   5.460  0.6023E+00  0.2185E+02
   5.470  0.1290E+01  0.2186E+02
   5.480  0.2428E+01  0.2189E+02
   5.490  0.1855E+01  0.2191E+02
   5.500  0.2159E+01  0.2193E+02
   5.510  0.3658E+01  0.2197E+02
   5.520  0.3310E+01  0.2200E+02
   5.530  0.6686E+00  0.2201E+02
   5.540 -0.4035E+00  0.2200E+02
   5.550 -0.1326E+00  0.2200E+02
   5.560 -0.9857E-02  0.2200E+02
   5.570 -0.2189E-03  0.2200E+02
   5.580 -0.1550E-05  0.2200E+02
   5.590 -0.3591E-08  0.2200E+02
   5.600 -0.2759E-11  0.2200E+02
   5.610 -0.7078E-15  0.2200E+02
   5.620 -0.6090E-19  0.2200E+02
   5.630 -0.1762E-23  0.2200E+02
   5.640 -0.1717E-28  0.2200E+02
   5.650  0.2529E-30  0.2200E+02
   5.660  0.4078E-25  0.2200E+02
   5.670  0.2216E-20  0.2200E+02
   5.680  0.4052E-16  0.2200E+02
   5.690  0.2488E-12  0.2200E+02
   5.700  0.5121E-09  0.2200E+02
   5.710  0.3521E-06  0.2200E+02
   5.720  0.8061E-04  0.2200E+02
   5.730  0.6123E-02  0.2200E+02
   5.740  0.1541E+00  0.2200E+02
   5.750  0.1294E+01  0.2201E+02
   5.760  0.3697E+01  0.2205E+02
   5.770  0.3617E+01  0.2209E+02
   5.780  0.1263E+01  0.2210E+02
   5.790  0.1343E+01  0.2211E+02
   5.800  0.1688E+01  0.2213E+02
   5.810  0.6110E+00  0.2214E+02
   5.820  0.6818E+00  0.2214E+02
   5.830  0.1210E+01  0.2216E+02
   5.840  0.9830E+00  0.2217E+02
   5.850  0.1046E+01  0.2218E+02
   5.860  0.5134E+00  0.2218E+02
   5.870  0.9141E+00  0.2219E+02
   5.880  0.9066E+00  0.2220E+02
   5.890  0.1007E+00  0.2220E+02
   5.900  0.5645E+00  0.2221E+02
   5.910  0.1246E+01  0.2222E+02
   5.920  0.8434E+00  0.2223E+02
   5.930  0.1027E+01  0.2224E+02
   5.940  0.6668E+00  0.2224E+02
   5.950 -0.1028E+00  0.2224E+02
   5.960 -0.5840E-01  0.2224E+02
   5.970  0.3185E+00  0.2225E+02
   5.980  0.1184E+01  0.2226E+02
   5.990  0.1573E+01  0.2227E+02
   6.000  0.1195E+01  0.2228E+02
   6.010  0.3081E+00  0.2229E+02
   6.020 -0.1643E+00  0.2229E+02
   6.030 -0.5420E-01  0.2229E+02
   6.040 -0.8801E-03  0.2229E+02
   6.050  0.7883E-01  0.2229E+02
   6.060  0.7388E+00  0.2229E+02
   6.070  0.2173E+01  0.2232E+02
   6.080  0.1686E+01  0.2233E+02
   6.090 -0.4215E-01  0.2233E+02
   6.100 -0.2110E+00  0.2233E+02
   6.110 -0.2967E-01  0.2233E+02
   6.120 -0.1067E-02  0.2233E+02
   6.130  0.3333E-02  0.2233E+02
   6.140  0.8042E-01  0.2233E+02
   6.150  0.6397E+00  0.2234E+02
   6.160  0.1750E+01  0.2235E+02
   6.170  0.1751E+01  0.2237E+02
   6.180  0.5248E+00  0.2238E+02
   6.190  0.6619E+00  0.2238E+02
   6.200  0.3336E+01  0.2242E+02
   6.210  0.4427E+01  0.2246E+02
   6.220  0.2246E+01  0.2248E+02
   6.230  0.1761E+01  0.2250E+02
   6.240  0.1480E+01  0.2252E+02
   6.250  0.2070E+01  0.2254E+02
   6.260  0.2277E+01  0.2256E+02
   6.270  0.1597E+01  0.2258E+02
   6.280  0.1887E+01  0.2259E+02
   6.290  0.1768E+01  0.2261E+02
   6.300  0.6648E+00  0.2262E+02
   6.310  0.2748E+00  0.2262E+02
   6.320  0.1132E+01  0.2263E+02
   6.330  0.1161E+01  0.2264E+02
   6.340  0.1315E+01  0.2266E+02
   6.350  0.1600E+01  0.2267E+02
   6.360  0.9419E+00  0.2268E+02
   6.370  0.1418E+00  0.2268E+02
   6.380  0.7219E+00  0.2269E+02
   6.390  0.1802E+01  0.2271E+02
   6.400  0.2345E+01  0.2273E+02
   6.410  0.1667E+01  0.2275E+02
   6.420 -0.8546E-03  0.2275E+02
   6.430 -0.2300E+00  0.2275E+02
   6.440 -0.5971E-02  0.2275E+02
   6.450  0.4530E+00  0.2275E+02
   6.460  0.2230E+01  0.2277E+02
   6.470  0.3355E+01  0.2281E+02
   6.480  0.1054E+01  0.2282E+02
   6.490 -0.3683E+00  0.2281E+02
   6.500 -0.1496E+00  0.2281E+02
   6.510 -0.1066E-01  0.2281E+02
   6.520  0.5131E-01  0.2281E+02
   6.530  0.5049E+00  0.2282E+02
   6.540  0.1923E+01  0.2284E+02
   6.550  0.4132E+01  0.2288E+02
   6.560  0.5524E+01  0.2293E+02
   6.570  0.3966E+01  0.2297E+02
   6.580  0.3533E+01  0.2301E+02
   6.590  0.2643E+01  0.2304E+02
   6.600  0.9083E+00  0.2305E+02
   6.610  0.9419E+00  0.2305E+02
   6.620  0.8843E+00  0.2306E+02
   6.630  0.1479E+01  0.2308E+02
   6.640  0.2239E+01  0.2310E+02
   6.650  0.2838E+01  0.2313E+02
   6.660  0.2711E+01  0.2316E+02
   6.670  0.1582E+01  0.2317E+02
   6.680  0.1701E+01  0.2319E+02
   6.690  0.2126E+01  0.2321E+02
   6.700  0.1554E+01  0.2323E+02
   6.710  0.2720E+01  0.2325E+02
   6.720  0.3559E+01  0.2329E+02
   6.730  0.2588E+01  0.2331E+02
   6.740  0.3497E+01  0.2335E+02
   6.750  0.3773E+01  0.2339E+02
   6.760  0.1152E+01  0.2340E+02
   6.770  0.1259E+01  0.2341E+02
   6.780  0.2382E+01  0.2343E+02
   6.790  0.2450E+01  0.2346E+02
   6.800  0.1394E+01  0.2347E+02
   6.810  0.1011E+01  0.2348E+02
   6.820  0.2119E+01  0.2350E+02
   6.830  0.2491E+01  0.2353E+02
   6.840  0.2532E+01  0.2355E+02
   6.850  0.3120E+01  0.2359E+02
   6.860  0.1878E+01  0.2360E+02
   6.870  0.3231E+00  0.2361E+02
   6.880  0.2083E+00  0.2361E+02
   6.890  0.1452E+01  0.2362E+02
   6.900  0.2080E+01  0.2365E+02
   6.910  0.1943E+01  0.2366E+02
   6.920  0.2261E+01  0.2369E+02
   6.930  0.1309E+01  0.2370E+02
   6.940  0.1535E+01  0.2372E+02
   6.950  0.2323E+01  0.2374E+02
   6.960  0.1440E+01  0.2375E+02
   6.970  0.1757E+01  0.2377E+02
   6.980  0.1550E+01  0.2379E+02
   6.990  0.1174E+01  0.2380E+02
   7.000  0.1099E+01  0.2381E+02
   7.010  0.1741E+01  0.2383E+02
   7.020  0.2058E+01  0.2385E+02
   7.030  0.8547E+00  0.2386E+02
   7.040  0.1012E+01  0.2387E+02
   7.050  0.9586E+00  0.2388E+02
   7.060  0.1062E+01  0.2389E+02
   7.070  0.8134E+00  0.2389E+02
   7.080  0.1339E+01  0.2391E+02
   7.090  0.3362E+01  0.2394E+02
   7.100  0.3340E+01  0.2397E+02
   7.110  0.1785E+01  0.2399E+02
   7.120  0.9221E+00  0.2400E+02
   7.130  0.6727E+00  0.2401E+02
   7.140  0.1410E+01  0.2402E+02
   7.150  0.1656E+01  0.2404E+02
   7.160  0.7130E+00  0.2405E+02
   7.170 -0.8103E-01  0.2405E+02
   7.180  0.3859E+00  0.2405E+02
   7.190  0.1888E+01  0.2407E+02
   7.200  0.2461E+01  0.2409E+02
   7.210  0.2089E+01  0.2411E+02
   7.220  0.1930E+01  0.2413E+02
   7.230  0.3885E+00  0.2414E+02
   7.240  0.6124E+00  0.2414E+02
   7.250  0.1676E+01  0.2416E+02
   7.260  0.2059E+01  0.2418E+02
   7.270  0.1751E+01  0.2420E+02
   7.280  0.5153E+00  0.2420E+02
   7.290  0.1330E+01  0.2422E+02
   7.300  0.3378E+01  0.2425E+02
   7.310  0.1891E+01  0.2427E+02
   7.320 -0.2734E+00  0.2427E+02
   7.330 -0.1401E+00  0.2427E+02
   7.340  0.7205E+00  0.2427E+02
   7.350  0.1932E+01  0.2429E+02
   7.360  0.1809E+01  0.2431E+02
   7.370  0.1140E+01  0.2432E+02
   7.380  0.1878E+01  0.2434E+02
   7.390  0.1664E+01  0.2436E+02
   7.400  0.1241E+01  0.2437E+02
   7.410  0.1975E+01  0.2439E+02
   7.420  0.2783E+01  0.2442E+02
   7.430  0.5516E+01  0.2447E+02
   7.440  0.5469E+01  0.2453E+02
   7.450  0.1456E+01  0.2454E+02
   7.460  0.1322E+01  0.2455E+02
   7.470  0.3237E+01  0.2459E+02
   7.480  0.2718E+01  0.2461E+02
   7.490  0.1154E+01  0.2463E+02
   7.500  0.1509E+01  0.2464E+02
   7.510  0.2116E+01  0.2466E+02
   7.520  0.2031E+01  0.2468E+02
   7.530  0.2501E+01  0.2471E+02
   7.540  0.2585E+01  0.2473E+02
   7.550  0.3658E+01  0.2477E+02
   7.560  0.2628E+01  0.2480E+02
   7.570  0.1591E+01  0.2481E+02
   7.580  0.3538E+01  0.2485E+02
   7.590  0.3558E+01  0.2488E+02
   7.600  0.2897E+01  0.2491E+02
   7.610  0.3179E+01  0.2494E+02
   7.620  0.2619E+01  0.2497E+02
   7.630  0.2564E+01  0.2499E+02
   7.640  0.2702E+01  0.2502E+02
   7.650  0.2262E+01  0.2504E+02
   7.660  0.2541E+01  0.2507E+02
   7.670  0.3477E+01  0.2510E+02
   7.680  0.2976E+01  0.2513E+02
   7.690  0.2676E+01  0.2516E+02
   7.700  0.1141E+01  0.2517E+02
   7.710  0.9603E+00  0.2518E+02
   7.720  0.2626E+01  0.2521E+02
   7.730  0.3163E+01  0.2524E+02
   7.740  0.2405E+01  0.2526E+02
   7.750  0.2517E+01  0.2529E+02
   7.760  0.2585E+01  0.2532E+02
   7.770  0.1794E+01  0.2533E+02
   7.780  0.2008E+01  0.2535E+02
   7.790  0.1263E+01  0.2537E+02
   7.800 -0.1211E+00  0.2536E+02
   7.810 -0.1798E+00  0.2536E+02
   7.820 -0.7509E-02  0.2536E+02
   7.830  0.2842E+00  0.2537E+02
   7.840  0.1575E+01  0.2538E+02
   7.850  0.2630E+01  0.2541E+02
   7.860  0.1574E+01  0.2542E+02
   7.870  0.7172E+00  0.2543E+02
   7.880  0.1992E+00  0.2543E+02
   7.890  0.1296E+01  0.2545E+02
   7.900  0.3222E+01  0.2548E+02
   7.910  0.3218E+01  0.2551E+02
   7.920  0.1424E+01  0.2552E+02
   7.930  0.7665E+00  0.2553E+02
   7.940  0.1032E+01  0.2554E+02
   7.950  0.1279E+01  0.2555E+02
   7.960  0.2860E+01  0.2558E+02
   7.970  0.3690E+01  0.2562E+02
   7.980  0.2750E+01  0.2565E+02
   7.990  0.1645E+01  0.2566E+02
   8.000  0.1100E+01  0.2568E+02
   8.010  0.1182E+01  0.2569E+02
   8.020  0.2429E+01  0.2571E+02
   8.030  0.3489E+01  0.2575E+02
   8.040  0.1872E+01  0.2577E+02
   8.050  0.6304E+00  0.2577E+02
   8.060  0.2082E+01  0.2579E+02
   8.070  0.2002E+01  0.2581E+02
   8.080  0.1310E+01  0.2583E+02
   8.090  0.2297E+01  0.2585E+02
   8.100  0.5571E+01  0.2590E+02
   8.110  0.4866E+01  0.2595E+02
   8.120  0.3757E+01  0.2599E+02
   8.130  0.5697E+01  0.2605E+02
   8.140  0.3757E+01  0.2608E+02
   8.150  0.2621E+01  0.2611E+02
   8.160  0.2459E+01  0.2614E+02
   8.170  0.2683E+01  0.2616E+02
   8.180  0.3169E+01  0.2619E+02
   8.190  0.3810E+01  0.2623E+02
   8.200  0.3861E+01  0.2627E+02
   8.210  0.1943E+01  0.2629E+02
   8.220  0.1337E+00  0.2629E+02
   8.230  0.6401E+00  0.2630E+02
   8.240  0.1150E+01  0.2631E+02
   8.250  0.1116E+01  0.2632E+02
   8.260  0.2627E+01  0.2635E+02
   8.270  0.3309E+01  0.2638E+02
   8.280  0.3716E+01  0.2642E+02
   8.290  0.4218E+01  0.2646E+02
   8.300  0.2885E+01  0.2649E+02
   8.310  0.7955E+00  0.2650E+02
   8.320  0.8173E+00  0.2650E+02
   8.330  0.3822E+00  0.2651E+02
   8.340  0.4253E+00  0.2651E+02
   8.350  0.1869E+01  0.2653E+02
   8.360  0.2060E+01  0.2655E+02
   8.370  0.1078E+01  0.2656E+02
   8.380  0.1350E+01  0.2658E+02
   8.390  0.1933E+01  0.2660E+02
   8.400  0.2521E+01  0.2662E+02
   8.410  0.1851E+01  0.2664E+02
   8.420  0.1690E+01  0.2666E+02
   8.430  0.3523E+01  0.2669E+02
   8.440  0.2963E+01  0.2672E+02
   8.450  0.8627E+00  0.2673E+02
   8.460  0.5975E+00  0.2674E+02
   8.470  0.2031E+01  0.2676E+02
   8.480  0.2327E+01  0.2678E+02
   8.490  0.1248E+01  0.2679E+02
   8.500  0.2204E+00  0.2679E+02
   8.510 -0.8250E-01  0.2679E+02
   8.520  0.7285E+00  0.2680E+02
   8.530  0.2319E+01  0.2682E+02
   8.540  0.3674E+01  0.2686E+02
   8.550  0.3632E+01  0.2690E+02
   8.560  0.1077E+01  0.2691E+02
   8.570 -0.4109E+00  0.2690E+02
   8.580 -0.3999E-01  0.2690E+02
   8.590  0.7484E+00  0.2691E+02
   8.600  0.1326E+01  0.2692E+02
   8.610  0.1065E+01  0.2693E+02
   8.620  0.1039E+01  0.2694E+02
   8.630  0.2854E+00  0.2695E+02
   8.640  0.2235E+00  0.2695E+02
   8.650  0.2016E+01  0.2697E+02
   8.660  0.4478E+01  0.2701E+02
   8.670  0.4640E+01  0.2706E+02
   8.680  0.3944E+01  0.2710E+02
   8.690  0.3029E+01  0.2713E+02
   8.700  0.2279E+01  0.2715E+02
   8.710  0.1490E+01  0.2717E+02
   8.720  0.3797E+00  0.2717E+02
   8.730  0.1084E+01  0.2718E+02
   8.740  0.1637E+01  0.2720E+02
   8.750  0.1920E+01  0.2722E+02
   8.760  0.3660E+01  0.2726E+02
   8.770  0.5359E+01  0.2731E+02
   8.780  0.4083E+01  0.2735E+02
   8.790  0.2989E+01  0.2738E+02
   8.800  0.1107E+01  0.2739E+02
   8.810 -0.3106E+00  0.2739E+02
   8.820  0.3426E+00  0.2739E+02
   8.830  0.1192E+01  0.2740E+02
   8.840  0.5998E+00  0.2741E+02
   8.850 -0.2674E-01  0.2741E+02
   8.860  0.6783E+00  0.2742E+02
   8.870  0.1908E+01  0.2743E+02
   8.880  0.1853E+01  0.2745E+02
   8.890  0.1235E+01  0.2747E+02
   8.900  0.1888E+01  0.2748E+02
   8.910  0.3297E+01  0.2752E+02
   8.920  0.3704E+01  0.2755E+02
   8.930  0.3188E+01  0.2759E+02
   8.940  0.3643E+01  0.2762E+02
   8.950  0.3918E+01  0.2766E+02
   8.960  0.3654E+01  0.2770E+02
   8.970  0.1675E+01  0.2771E+02
   8.980  0.3165E+00  0.2772E+02
   8.990  0.3284E+00  0.2772E+02
   9.000  0.1745E+01  0.2774E+02
   9.010  0.2813E+01  0.2777E+02
   9.020  0.2808E+01  0.2779E+02
   9.030  0.1389E+01  0.2781E+02
   9.040  0.1361E+01  0.2782E+02
   9.050  0.4285E+01  0.2787E+02
   9.060  0.4092E+01  0.2791E+02
   9.070  0.2287E+01  0.2793E+02
   9.080  0.1374E+01  0.2794E+02
   9.090  0.1203E+01  0.2795E+02
   9.100  0.2417E+01  0.2798E+02
   9.110  0.2625E+01  0.2801E+02
   9.120  0.1499E+01  0.2802E+02
   9.130  0.1020E+01  0.2803E+02
   9.140  0.1859E+01  0.2805E+02
   9.150  0.2493E+01  0.2807E+02
   9.160  0.2309E+01  0.2810E+02
   9.170  0.1899E+01  0.2812E+02
   9.180  0.1772E+01  0.2813E+02
   9.190  0.4708E+01  0.2818E+02
   9.200  0.6438E+01  0.2825E+02
   9.210  0.4322E+01  0.2829E+02
   9.220  0.3390E+01  0.2832E+02
   9.230  0.3669E+01  0.2836E+02
   9.240  0.3188E+01  0.2839E+02
   9.250  0.3530E+01  0.2843E+02
   9.260  0.2627E+01  0.2845E+02
   9.270  0.1617E+01  0.2847E+02
   9.280  0.1480E+01  0.2848E+02
   9.290  0.2312E+01  0.2851E+02
   9.300  0.2092E+01  0.2853E+02
   9.310  0.3599E+01  0.2856E+02
   9.320  0.3396E+01  0.2860E+02
   9.330  0.2345E+01  0.2862E+02
   9.340  0.2606E+01  0.2865E+02
   9.350  0.2782E+01  0.2867E+02
   9.360  0.2747E+01  0.2870E+02
   9.370  0.2815E+01  0.2873E+02
   9.380  0.2933E+01  0.2876E+02
   9.390  0.2603E+01  0.2879E+02
   9.400  0.1887E+01  0.2880E+02
   9.410  0.1441E+01  0.2882E+02
   9.420  0.1581E+01  0.2883E+02
   9.430  0.3736E+01  0.2887E+02
   9.440  0.8018E+01  0.2895E+02
   9.450  0.9498E+01  0.2905E+02
   9.460  0.5124E+01  0.2910E+02
   9.470  0.3278E+01  0.2913E+02
   9.480  0.3242E+01  0.2916E+02
   9.490  0.2599E+01  0.2919E+02
   9.500  0.2466E+01  0.2921E+02
   9.510  0.4597E+01  0.2926E+02
   9.520  0.7157E+01  0.2933E+02
   9.530  0.6267E+01  0.2939E+02
   9.540  0.3931E+01  0.2943E+02
   9.550  0.5636E+01  0.2949E+02
   9.560  0.5871E+01  0.2955E+02
   9.570  0.4347E+01  0.2959E+02
   9.580  0.3851E+01  0.2963E+02
   9.590  0.3543E+01  0.2967E+02
   9.600  0.4212E+01  0.2971E+02
   9.610  0.3306E+01  0.2974E+02
   9.620  0.2137E+01  0.2976E+02
   9.630  0.3830E+01  0.2980E+02
   9.640  0.3195E+01  0.2983E+02
   9.650  0.2043E+01  0.2985E+02
   9.660  0.3930E+01  0.2989E+02
   9.670  0.3755E+01  0.2993E+02
   9.680  0.3266E+01  0.2996E+02
   9.690  0.4837E+01  0.3001E+02
   9.700  0.5682E+01  0.3007E+02
   9.710  0.3157E+01  0.3010E+02
   9.720  0.9859E+00  0.3011E+02
   9.730  0.3185E+00  0.3011E+02
   9.740  0.2437E+00  0.3012E+02
   9.750  0.1289E+01  0.3013E+02
   9.760  0.1769E+01  0.3015E+02
   9.770  0.1813E+01  0.3016E+02
   9.780  0.3295E+01  0.3020E+02
   9.790  0.4618E+01  0.3024E+02
   9.800  0.3901E+01  0.3028E+02
   9.810  0.3627E+01  0.3032E+02
   9.820  0.3640E+01  0.3036E+02
   9.830  0.2642E+01  0.3038E+02
   9.840  0.2501E+01  0.3041E+02
   9.850  0.2064E+01  0.3043E+02
   9.860  0.1906E+01  0.3045E+02
   9.870  0.3782E+01  0.3048E+02
   9.880  0.4451E+01  0.3053E+02
   9.890  0.1904E+01  0.3055E+02
   9.900  0.3642E+01  0.3058E+02
   9.910  0.6054E+01  0.3064E+02
   9.920  0.3042E+01  0.3067E+02
   9.930  0.1787E+01  0.3069E+02
   9.940  0.3057E+01  0.3072E+02
   9.950  0.2993E+01  0.3075E+02
   9.960  0.5163E+01  0.3080E+02
   9.970  0.6752E+01  0.3087E+02
   9.980  0.5348E+01  0.3093E+02
   9.990  0.3160E+01  0.3096E+02
  10.000  0.1847E+01  0.3098E+02
  10.010  0.1693E+01  0.3099E+02
  10.020  0.1775E+01  0.3101E+02
  10.030  0.4000E+00  0.3101E+02
  10.040  0.2420E+00  0.3102E+02
  10.050  0.2120E+01  0.3104E+02
  10.060  0.4792E+01  0.3109E+02
  10.070  0.5505E+01  0.3114E+02
  10.080  0.5143E+01  0.3119E+02
  10.090  0.6238E+01  0.3126E+02
  10.100  0.6792E+01  0.3132E+02
  10.110  0.5575E+01  0.3138E+02
  10.120  0.3820E+01  0.3142E+02
  10.130  0.5206E+01  0.3147E+02
  10.140  0.4201E+01  0.3151E+02
  10.150  0.1680E+01  0.3153E+02
  10.160  0.2596E+01  0.3155E+02
  10.170  0.4375E+01  0.3160E+02
  10.180  0.4718E+01  0.3164E+02
  10.190  0.5109E+01  0.3170E+02
  10.200  0.5310E+01  0.3175E+02
  10.210  0.1889E+01  0.3177E+02
  10.220 -0.1413E+00  0.3177E+02
  10.230  0.1057E+01  0.3178E+02
  10.240  0.1772E+01  0.3179E+02
  10.250  0.2026E+01  0.3181E+02
  10.260  0.1375E+01  0.3183E+02
  10.270  0.9949E+00  0.3184E+02
  10.280  0.2289E+01  0.3186E+02
  10.290  0.2882E+01  0.3189E+02
  10.300  0.2140E+01  0.3191E+02
  10.310  0.1227E+01  0.3192E+02
  10.320  0.1018E+01  0.3193E+02
  10.330  0.7909E+00  0.3194E+02
  10.340  0.2267E+01  0.3196E+02
  10.350  0.3498E+01  0.3200E+02
  10.360  0.1921E+01  0.3202E+02
  10.370  0.1829E+01  0.3204E+02
  10.380  0.3068E+01  0.3207E+02
  10.390  0.2603E+01  0.3209E+02
  10.400  0.1651E+01  0.3211E+02
  10.410  0.2455E+01  0.3213E+02
  10.420  0.2383E+01  0.3216E+02
  10.430  0.1649E+01  0.3218E+02
  10.440  0.2516E+01  0.3220E+02
  10.450  0.3533E+01  0.3224E+02
  10.460  0.4707E+01  0.3228E+02
  10.470  0.3747E+01  0.3232E+02
  10.480  0.4580E+01  0.3237E+02
  10.490  0.4645E+01  0.3241E+02
  10.500  0.2577E+01  0.3244E+02
  10.510  0.2146E+01  0.3246E+02
  10.520  0.2732E+01  0.3249E+02
  10.530  0.2287E+01  0.3251E+02
  10.540  0.2288E+01  0.3253E+02
  10.550  0.4890E+01  0.3258E+02
  10.560  0.6369E+01  0.3265E+02
  10.570  0.6034E+01  0.3271E+02
  10.580  0.4265E+01  0.3275E+02
  10.590  0.1896E+01  0.3277E+02
  10.600  0.9838E+00  0.3278E+02
  10.610  0.1892E+01  0.3280E+02
  10.620  0.3141E+01  0.3283E+02
  10.630  0.4025E+01  0.3287E+02
  10.640  0.4946E+01  0.3292E+02
  10.650  0.3811E+01  0.3296E+02
  10.660  0.3593E+01  0.3299E+02
  10.670  0.4059E+01  0.3303E+02
  10.680  0.1277E+01  0.3304E+02
  10.690  0.1533E+01  0.3306E+02
  10.700  0.3172E+01  0.3309E+02
  10.710  0.1271E+01  0.3310E+02
  10.720  0.2880E-01  0.3310E+02
  10.730  0.1692E+01  0.3312E+02
  10.740  0.3172E+01  0.3315E+02
  10.750  0.3083E+01  0.3318E+02
  10.760  0.3576E+01  0.3322E+02
  10.770  0.3728E+01  0.3326E+02
  10.780  0.3960E+01  0.3330E+02
  10.790  0.4370E+01  0.3334E+02
  10.800  0.6025E+01  0.3340E+02
  10.810  0.1018E+02  0.3350E+02
  10.820  0.9185E+01  0.3359E+02
  10.830  0.4083E+01  0.3364E+02
  10.840  0.4762E+01  0.3368E+02
  10.850  0.5396E+01  0.3374E+02
  10.860  0.4747E+01  0.3378E+02
  10.870  0.2792E+01  0.3381E+02
  10.880  0.2770E+01  0.3384E+02
  10.890  0.4744E+01  0.3389E+02
  10.900  0.2791E+01  0.3392E+02
  10.910  0.1124E+01  0.3393E+02
  10.920  0.2511E+01  0.3395E+02
  10.930  0.4387E+01  0.3400E+02
  10.940  0.4887E+01  0.3404E+02
  10.950  0.5513E+01  0.3410E+02
  10.960  0.6122E+01  0.3416E+02
  10.970  0.4961E+01  0.3421E+02
  10.980  0.2678E+01  0.3424E+02
  10.990  0.2966E+01  0.3427E+02
  11.000  0.3055E+01  0.3430E+02
  11.010  0.1474E+01  0.3431E+02
  11.020  0.2009E+01  0.3433E+02
  11.030  0.4306E+01  0.3438E+02
  11.040  0.3187E+01  0.3441E+02
  11.050  0.1044E+01  0.3442E+02
  11.060  0.5169E+00  0.3442E+02
  11.070  0.9474E+00  0.3443E+02
  11.080  0.2147E+01  0.3445E+02
  11.090  0.3090E+01  0.3448E+02
  11.100  0.3935E+01  0.3452E+02
  11.110  0.6067E+01  0.3458E+02
  11.120  0.6346E+01  0.3465E+02
  11.130  0.3347E+01  0.3468E+02
  11.140  0.6858E+00  0.3469E+02
  11.150  0.3505E+00  0.3469E+02
  11.160  0.2140E+01  0.3471E+02
  11.170  0.1818E+01  0.3473E+02
  11.180  0.1145E+01  0.3474E+02
  11.190  0.2807E+01  0.3477E+02
  11.200  0.4559E+01  0.3482E+02
  11.210  0.7974E+01  0.3490E+02
  11.220  0.1229E+02  0.3502E+02
  11.230  0.8849E+01  0.3511E+02
  11.240  0.2482E+01  0.3513E+02
  11.250  0.1302E+01  0.3515E+02
  11.260  0.5567E+01  0.3520E+02
  11.270  0.7595E+01  0.3528E+02
  11.280  0.4421E+01  0.3532E+02
  11.290  0.3448E+01  0.3536E+02
  11.300  0.5053E+01  0.3541E+02
  11.310  0.4552E+01  0.3545E+02
  11.320  0.2805E+01  0.3548E+02
  11.330  0.4277E+01  0.3552E+02
  11.340  0.6120E+01  0.3558E+02
  11.350  0.4069E+01  0.3562E+02
  11.360  0.2252E+01  0.3565E+02
  11.370  0.4157E+01  0.3569E+02
  11.380  0.5247E+01  0.3574E+02
  11.390  0.3585E+01  0.3578E+02
  11.400  0.3477E+01  0.3581E+02
  11.410  0.4754E+01  0.3586E+02
  11.420  0.3825E+01  0.3590E+02
  11.430  0.4234E+01  0.3594E+02
  11.440  0.2665E+01  0.3597E+02
  11.450  0.1091E+01  0.3598E+02
  11.460  0.3129E+01  0.3601E+02
  11.470  0.3440E+01  0.3604E+02
  11.480  0.2336E+01  0.3607E+02
  11.490  0.1478E+01  0.3608E+02
  11.500  0.3047E+01  0.3611E+02
  11.510  0.5952E+01  0.3617E+02
  11.520  0.6974E+01  0.3624E+02
  11.530  0.5631E+01  0.3630E+02
  11.540  0.6244E+01  0.3636E+02
  11.550  0.5974E+01  0.3642E+02
  11.560  0.4903E+01  0.3647E+02
  11.570  0.6993E+01  0.3654E+02
  11.580  0.5831E+01  0.3660E+02
  11.590  0.6916E+00  0.3660E+02
  11.600 -0.5173E-01  0.3660E+02
  11.610  0.1222E+01  0.3662E+02
  11.620  0.2312E+01  0.3664E+02
  11.630  0.6462E+01  0.3670E+02
  11.640  0.8794E+01  0.3679E+02
  11.650  0.6104E+01  0.3685E+02
  11.660  0.4103E+01  0.3689E+02
  11.670  0.3794E+01  0.3693E+02
  11.680  0.5102E+01  0.3698E+02
  11.690  0.7864E+01  0.3706E+02
  11.700  0.8317E+01  0.3714E+02
  11.710  0.7085E+01  0.3721E+02
  11.720  0.6290E+01  0.3728E+02
  11.730  0.2963E+01  0.3731E+02
  11.740  0.1760E+00  0.3731E+02
  11.750  0.1543E+01  0.3732E+02
  11.760  0.2616E+01  0.3735E+02
  11.770  0.1699E+01  0.3737E+02
  11.780  0.1583E+01  0.3738E+02
  11.790  0.4699E+01  0.3743E+02
  11.800  0.6148E+01  0.3749E+02
  11.810  0.3097E+01  0.3752E+02
  11.820  0.4225E+01  0.3757E+02
  11.830  0.8553E+01  0.3765E+02
  11.840  0.6910E+01  0.3772E+02
  11.850  0.1800E+01  0.3774E+02
  11.860  0.1580E+01  0.3775E+02
  11.870  0.1338E+01  0.3777E+02
  11.880  0.1451E+01  0.3778E+02
  11.890  0.2153E+01  0.3780E+02
  11.900  0.1637E+01  0.3782E+02
  11.910  0.2991E+01  0.3785E+02
  11.920  0.4470E+01  0.3789E+02
  11.930  0.5259E+01  0.3795E+02
  11.940  0.5878E+01  0.3801E+02
  11.950  0.5129E+01  0.3806E+02
  11.960  0.2613E+01  0.3808E+02
  11.970  0.1496E+01  0.3810E+02
  11.980  0.2863E+01  0.3813E+02
  11.990  0.5394E+01  0.3818E+02
  12.000  0.5701E+01  0.3824E+02
  12.010  0.4754E+01  0.3828E+02
  12.020  0.6162E+01  0.3835E+02
  12.030  0.5983E+01  0.3841E+02
  12.040  0.5853E+01  0.3846E+02
  12.050  0.6642E+01  0.3853E+02
  12.060  0.4533E+01  0.3858E+02
  12.070  0.3034E+01  0.3861E+02
  12.080  0.3945E+01  0.3865E+02
  12.090  0.4110E+01  0.3869E+02
  12.100  0.2668E+01  0.3871E+02
  12.110  0.3241E+01  0.3875E+02
  12.120  0.5097E+01  0.3880E+02
  12.130  0.3877E+01  0.3884E+02
  12.140  0.2076E+01  0.3886E+02
  12.150  0.1516E+01  0.3887E+02
  12.160  0.2941E+01  0.3890E+02
  12.170  0.3381E+01  0.3894E+02
  12.180  0.2238E+01  0.3896E+02
  12.190  0.3107E+01  0.3899E+02
  12.200  0.4736E+01  0.3904E+02
  12.210  0.5388E+01  0.3909E+02
  12.220  0.7063E+01  0.3916E+02
  12.230  0.7260E+01  0.3923E+02
  12.240  0.5667E+01  0.3929E+02
  12.250  0.5866E+01  0.3935E+02
  12.260  0.4302E+01  0.3939E+02
  12.270  0.2127E+01  0.3941E+02
  12.280  0.2118E+01  0.3943E+02
  12.290  0.3140E+01  0.3947E+02
  12.300  0.3406E+01  0.3950E+02
  12.310  0.5390E+01  0.3955E+02
  12.320  0.7360E+01  0.3963E+02
  12.330  0.5056E+01  0.3968E+02
  12.340  0.5030E+01  0.3973E+02
  12.350  0.5238E+01  0.3978E+02
  12.360  0.2874E+01  0.3981E+02
  12.370  0.2617E+01  0.3984E+02
  12.380  0.5743E+01  0.3989E+02
  12.390  0.9914E+01  0.3999E+02
  12.400  0.8381E+01  0.4008E+02
  12.410  0.3267E+01  0.4011E+02
  12.420  0.2039E+01  0.4013E+02
  12.430  0.3199E+01  0.4016E+02
  12.440  0.5153E+01  0.4021E+02
  12.450  0.7823E+01  0.4029E+02
  12.460  0.7712E+01  0.4037E+02
  12.470  0.4890E+01  0.4042E+02
  12.480  0.3620E+01  0.4045E+02
  12.490  0.5182E+01  0.4050E+02
  12.500  0.7708E+01  0.4058E+02
  12.510  0.5375E+01  0.4064E+02
  12.520  0.2870E+01  0.4066E+02
  12.530  0.2218E+01  0.4069E+02
  12.540  0.2204E+01  0.4071E+02
  12.550  0.3526E+01  0.4074E+02
  12.560  0.4506E+01  0.4079E+02
  12.570  0.3767E+01  0.4083E+02
  12.580  0.2996E+01  0.4086E+02
  12.590  0.1475E+01  0.4087E+02
  12.600  0.9561E+00  0.4088E+02
  12.610  0.1713E+01  0.4090E+02
  12.620  0.5386E+01  0.4095E+02
  12.630  0.7524E+01  0.4103E+02
  12.640  0.3972E+01  0.4107E+02
  12.650  0.1423E+01  0.4108E+02
  12.660  0.1359E+01  0.4109E+02
  12.670  0.1907E+01  0.4111E+02
  12.680  0.4703E+01  0.4116E+02
  12.690  0.7048E+01  0.4123E+02
  12.700  0.6627E+01  0.4130E+02
  12.710  0.5614E+01  0.4135E+02
  12.720  0.3437E+01  0.4139E+02
  12.730  0.5412E+01  0.4144E+02
  12.740  0.7357E+01  0.4152E+02
  12.750  0.5767E+01  0.4157E+02
  12.760  0.4115E+01  0.4161E+02
  12.770  0.4330E+01  0.4166E+02
  12.780  0.4787E+01  0.4171E+02
  12.790  0.5888E+01  0.4176E+02
  12.800  0.7117E+01  0.4184E+02
  12.810  0.7799E+01  0.4191E+02
  12.820  0.6556E+01  0.4198E+02
  12.830  0.4218E+01  0.4202E+02
  12.840  0.3418E+01  0.4206E+02
  12.850  0.2313E+01  0.4208E+02
  12.860  0.1622E+01  0.4209E+02
  12.870  0.3504E+01  0.4213E+02
  12.880  0.6733E+01  0.4220E+02
  12.890  0.7205E+01  0.4227E+02
  12.900  0.5305E+01  0.4232E+02
  12.910  0.4935E+01  0.4237E+02
  12.920  0.3847E+01  0.4241E+02
  12.930  0.3842E+01  0.4245E+02
  12.940  0.4374E+01  0.4249E+02
  12.950  0.2683E+01  0.4252E+02
  12.960  0.4234E+01  0.4256E+02
  12.970  0.7164E+01  0.4263E+02
  12.980  0.5851E+01  0.4269E+02
  12.990  0.2068E+01  0.4271E+02
  13.000  0.6391E+00  0.4272E+02
  13.010  0.1319E+01  0.4273E+02
  13.020  0.2824E+01  0.4276E+02
  13.030  0.4332E+01  0.4280E+02
  13.040  0.2469E+01  0.4283E+02
  13.050  0.1373E+01  0.4284E+02
  13.060  0.2915E+01  0.4287E+02
  13.070  0.4694E+01  0.4292E+02
  13.080  0.2783E+01  0.4295E+02
  13.090  0.1371E+01  0.4296E+02
  13.100  0.2449E+01  0.4298E+02
  13.110  0.3423E+01  0.4302E+02
  13.120  0.3551E+01  0.4305E+02
  13.130  0.2007E+01  0.4307E+02
  13.140  0.1355E+01  0.4309E+02
  13.150  0.2522E+01  0.4311E+02
  13.160  0.4225E+01  0.4315E+02
  13.170  0.3851E+01  0.4319E+02
  13.180  0.3251E+01  0.4323E+02
  13.190  0.2845E+01  0.4325E+02
  13.200  0.2475E+01  0.4328E+02
  13.210  0.5966E+01  0.4334E+02
  13.220  0.1290E+02  0.4347E+02
  13.230  0.1487E+02  0.4362E+02
  13.240  0.9142E+01  0.4371E+02
  13.250  0.3406E+01  0.4374E+02
  13.260  0.3763E+01  0.4378E+02
  13.270  0.6905E+01  0.4385E+02
  13.280  0.7667E+01  0.4393E+02
  13.290  0.5041E+01  0.4398E+02
  13.300  0.4375E+01  0.4402E+02
  13.310  0.8465E+01  0.4410E+02
  13.320  0.7310E+01  0.4418E+02
  13.330  0.3520E+01  0.4421E+02
  13.340  0.5275E+01  0.4426E+02
  13.350  0.1163E+02  0.4438E+02
  13.360  0.1625E+02  0.4454E+02
  13.370  0.8668E+01  0.4463E+02
  13.380  0.2068E+01  0.4465E+02
  13.390  0.1563E+01  0.4467E+02
  13.400  0.2577E+01  0.4469E+02
  13.410  0.3489E+01  0.4473E+02
  13.420  0.5961E+01  0.4479E+02
  13.430  0.8743E+01  0.4487E+02
  13.440  0.7854E+01  0.4495E+02
  13.450  0.3324E+01  0.4499E+02
  13.460  0.1790E+01  0.4500E+02
  13.470  0.2825E+01  0.4503E+02
  13.480  0.3875E+01  0.4507E+02
  13.490  0.3960E+01  0.4511E+02
  13.500  0.3693E+01  0.4515E+02
  13.510  0.2523E+01  0.4517E+02
  13.520  0.2659E+01  0.4520E+02
  13.530  0.6008E+01  0.4526E+02
  13.540  0.8583E+01  0.4535E+02
  13.550  0.6934E+01  0.4541E+02
  13.560  0.2885E+01  0.4544E+02
  13.570  0.1390E+01  0.4546E+02
  13.580  0.1078E+01  0.4547E+02
  13.590  0.1916E+01  0.4549E+02
  13.600  0.1499E+01  0.4550E+02
  13.610  0.2202E+01  0.4552E+02
  13.620  0.4214E+01  0.4557E+02
  13.630  0.4265E+01  0.4561E+02
  13.640  0.3741E+01  0.4565E+02
  13.650  0.2153E+01  0.4567E+02
  13.660  0.1890E+01  0.4569E+02
  13.670  0.1784E+01  0.4570E+02
  13.680  0.1861E+01  0.4572E+02
  13.690  0.1511E+01  0.4574E+02
  13.700  0.6054E+00  0.4574E+02
  13.710  0.1482E+01  0.4576E+02
  13.720  0.2810E+01  0.4579E+02
  13.730  0.4199E+01  0.4583E+02
  13.740  0.3470E+01  0.4586E+02
  13.750  0.1253E+01  0.4588E+02
  13.760  0.1277E+01  0.4589E+02
  13.770  0.2694E+01  0.4592E+02
  13.780  0.4849E+01  0.4596E+02
  13.790  0.8282E+01  0.4605E+02
  13.800  0.1180E+02  0.4617E+02
  13.810  0.1189E+02  0.4628E+02
  13.820  0.1175E+02  0.4640E+02
  13.830  0.9570E+01  0.4650E+02
  13.840  0.4425E+01  0.4654E+02
  13.850  0.5152E+01  0.4659E+02
  13.860  0.8268E+01  0.4668E+02
  13.870  0.6631E+01  0.4674E+02
  13.880  0.4297E+01  0.4679E+02
  13.890  0.2507E+01  0.4681E+02
  13.900  0.2276E+01  0.4683E+02
  13.910  0.4392E+01  0.4688E+02
  13.920  0.6558E+01  0.4694E+02
  13.930  0.5104E+01  0.4699E+02
  13.940  0.1467E+01  0.4701E+02
  13.950  0.1707E+01  0.4703E+02
  13.960  0.2980E+01  0.4706E+02
  13.970  0.5573E+01  0.4711E+02
  13.980  0.7155E+01  0.4718E+02
  13.990  0.5189E+01  0.4723E+02
  14.000  0.3529E+01  0.4727E+02
  14.010  0.3135E+01  0.4730E+02
  14.020  0.3936E+01  0.4734E+02
  14.030  0.2474E+01  0.4737E+02
  14.040  0.5454E+00  0.4737E+02
  14.050  0.1184E+01  0.4738E+02
  14.060  0.2057E+01  0.4740E+02
  14.070  0.9291E+00  0.4741E+02
  14.080  0.7565E+00  0.4742E+02
  14.090  0.1068E+01  0.4743E+02
  14.100  0.8337E+00  0.4744E+02
  14.110  0.1641E+01  0.4746E+02
  14.120  0.2784E+01  0.4748E+02
  14.130  0.4370E+01  0.4753E+02
  14.140  0.4977E+01  0.4758E+02
  14.150  0.2707E+01  0.4760E+02
  14.160  0.6485E+00  0.4761E+02
  14.170  0.9925E+00  0.4762E+02
  14.180  0.2281E+01  0.4764E+02
  14.190  0.2034E+01  0.4766E+02
  14.200  0.3464E+01  0.4770E+02
  14.210  0.4109E+01  0.4774E+02
  14.220  0.1632E+01  0.4776E+02
  14.230  0.5354E+00  0.4776E+02
  14.240  0.1688E+00  0.4776E+02
  14.250  0.8649E+00  0.4777E+02
  14.260  0.1056E+01  0.4778E+02
  14.270  0.5425E+00  0.4779E+02
  14.280  0.1404E+01  0.4780E+02
  14.290  0.2287E+01  0.4782E+02
  14.300  0.3261E+01  0.4786E+02
  14.310  0.4847E+01  0.4791E+02
  14.320  0.3803E+01  0.4794E+02
  14.330  0.1804E+01  0.4796E+02
  14.340  0.3056E+01  0.4799E+02
  14.350  0.1560E+01  0.4801E+02
  14.360  0.8360E+00  0.4802E+02
  14.370  0.2986E+01  0.4805E+02
  14.380  0.3609E+01  0.4808E+02
  14.390  0.3987E+01  0.4812E+02
  14.400  0.4268E+01  0.4816E+02
  14.410  0.3472E+01  0.4820E+02
  14.420  0.2585E+01  0.4822E+02
  14.430  0.5716E+01  0.4828E+02
  14.440  0.7828E+01  0.4836E+02
  14.450  0.6449E+01  0.4842E+02
  14.460  0.6801E+01  0.4849E+02
  14.470  0.5634E+01  0.4855E+02
  14.480  0.1151E+01  0.4856E+02
  14.490  0.1111E+00  0.4856E+02
  14.500  0.1832E+01  0.4858E+02
  14.510  0.1684E+01  0.4860E+02
  14.520  0.1227E+01  0.4861E+02
  14.530  0.2508E+01  0.4863E+02
  14.540  0.2131E+01  0.4866E+02
  14.550  0.7451E+00  0.4866E+02
  14.560  0.4272E+00  0.4867E+02
  14.570  0.1460E+01  0.4868E+02
  14.580  0.2554E+01  0.4871E+02
  14.590  0.3822E+01  0.4875E+02
  14.600  0.3965E+01  0.4879E+02
  14.610  0.3420E+01  0.4882E+02
  14.620  0.3583E+01  0.4886E+02
  14.630  0.3977E+01  0.4890E+02
  14.640  0.1701E+01  0.4891E+02
  14.650  0.7902E+00  0.4892E+02
  14.660  0.1397E+01  0.4893E+02
  14.670  0.1132E+01  0.4895E+02
  14.680  0.4037E+00  0.4895E+02
  14.690  0.8649E+00  0.4896E+02
  14.700  0.1951E+01  0.4898E+02
  14.710  0.2666E+01  0.4900E+02
  14.720  0.3746E+01  0.4904E+02
  14.730  0.3321E+01  0.4907E+02
  14.740  0.1926E+01  0.4909E+02
  14.750  0.1773E+01  0.4911E+02
  14.760  0.3362E+01  0.4915E+02
  14.770  0.4942E+01  0.4919E+02
  14.780  0.3833E+01  0.4923E+02
  14.790  0.2801E+01  0.4926E+02
  14.800  0.2448E+01  0.4929E+02
  14.810  0.4014E+01  0.4933E+02
  14.820  0.6924E+01  0.4940E+02
  14.830  0.4823E+01  0.4944E+02
  14.840  0.1346E+01  0.4946E+02
  14.850  0.1161E+01  0.4947E+02
  14.860  0.2456E+01  0.4949E+02
  14.870  0.2200E+01  0.4951E+02
  14.880  0.1900E+01  0.4953E+02
  14.890  0.1949E+01  0.4955E+02
  14.900  0.4261E+01  0.4960E+02
  14.910  0.6683E+01  0.4966E+02
  14.920  0.5215E+01  0.4971E+02
  14.930  0.3820E+01  0.4975E+02
  14.940  0.4405E+01  0.4980E+02
  14.950  0.4969E+01  0.4985E+02
  14.960  0.6245E+01  0.4991E+02
  14.970  0.3713E+01  0.4995E+02
  14.980  0.1037E+01  0.4996E+02
  14.990  0.2921E+01  0.4999E+02
  15.000  0.3632E+01  0.5002E+02
  15.010  0.2326E+01  0.5005E+02
  15.020  0.4698E+00  0.5005E+02
  15.030  0.1114E+01  0.5006E+02
  15.040  0.3341E+01  0.5009E+02
  15.050  0.4025E+01  0.5014E+02
  15.060  0.6571E+01  0.5020E+02
  15.070  0.7815E+01  0.5028E+02
  15.080  0.4653E+01  0.5033E+02
  15.090  0.1945E+01  0.5034E+02
  15.100  0.9984E+00  0.5035E+02
  15.110  0.1976E+01  0.5037E+02
  15.120  0.4407E+01  0.5042E+02
  15.130  0.3276E+01  0.5045E+02
  15.140  0.2092E+01  0.5047E+02
  15.150  0.3473E+01  0.5051E+02
  15.160  0.3064E+01  0.5054E+02
  15.170  0.3468E+01  0.5057E+02
  15.180  0.2860E+01  0.5060E+02
  15.190  0.3611E+01  0.5064E+02
  15.200  0.4799E+01  0.5069E+02
  15.210  0.3771E+01  0.5072E+02
  15.220  0.2653E+01  0.5075E+02
  15.230  0.3987E+01  0.5079E+02
  15.240  0.6575E+01  0.5086E+02
  15.250  0.7576E+01  0.5093E+02
  15.260  0.3707E+01  0.5097E+02
  15.270  0.2536E+01  0.5099E+02
  15.280  0.5429E+01  0.5105E+02
  15.290  0.6136E+01  0.5111E+02
  15.300  0.5164E+01  0.5116E+02
  15.310  0.4725E+01  0.5121E+02
  15.320  0.3070E+01  0.5124E+02
  15.330  0.2696E+01  0.5127E+02
  15.340  0.3276E+01  0.5130E+02
  15.350  0.2712E+01  0.5133E+02
  15.360  0.2827E+01  0.5135E+02
  15.370  0.5553E+01  0.5141E+02
  15.380  0.5077E+01  0.5146E+02
  15.390  0.3212E+01  0.5149E+02
  15.400  0.3995E+01  0.5153E+02
  15.410  0.4006E+01  0.5157E+02
  15.420  0.3748E+01  0.5161E+02
  15.430  0.4121E+01  0.5165E+02
  15.440  0.2796E+01  0.5168E+02
  15.450  0.1856E+01  0.5170E+02
  15.460  0.4612E+01  0.5174E+02
  15.470  0.3971E+01  0.5178E+02
  15.480  0.3185E+01  0.5181E+02
  15.490  0.4693E+01  0.5186E+02
  15.500  0.8621E+01  0.5195E+02
  15.510  0.1100E+02  0.5206E+02
  15.520  0.6846E+01  0.5213E+02
  15.530  0.6554E+01  0.5219E+02
  15.540  0.6084E+01  0.5225E+02
  15.550  0.4580E+01  0.5230E+02
  15.560  0.4715E+01  0.5235E+02
  15.570  0.7808E+01  0.5242E+02
  15.580  0.1081E+02  0.5253E+02
  15.590  0.1245E+02  0.5266E+02
  15.600  0.8617E+01  0.5274E+02
  15.610  0.2240E+01  0.5277E+02
  15.620  0.2337E+01  0.5279E+02
  15.630  0.6383E+01  0.5285E+02
  15.640  0.9379E+01  0.5295E+02
  15.650  0.1034E+02  0.5305E+02
  15.660  0.8113E+01  0.5313E+02
  15.670  0.4216E+01  0.5317E+02
  15.680  0.4554E+01  0.5322E+02
  15.690  0.5806E+01  0.5328E+02
  15.700  0.4690E+01  0.5332E+02
  15.710  0.3691E+01  0.5336E+02
  15.720  0.2322E+01  0.5338E+02
  15.730  0.2253E+01  0.5341E+02
  15.740  0.2094E+01  0.5343E+02
  15.750  0.2988E+01  0.5346E+02
  15.760  0.4387E+01  0.5350E+02
  15.770  0.6177E+01  0.5356E+02
  15.780  0.7215E+01  0.5363E+02
  15.790  0.6016E+01  0.5369E+02
  15.800  0.5593E+01  0.5375E+02
  15.810  0.7697E+01  0.5383E+02
  15.820  0.5573E+01  0.5388E+02
  15.830  0.4412E+01  0.5393E+02
  15.840  0.4386E+01  0.5397E+02
  15.850  0.3961E+01  0.5401E+02
  15.860  0.3337E+01  0.5404E+02
  15.870  0.3121E+01  0.5408E+02
  15.880  0.5695E+01  0.5413E+02
  15.890  0.8713E+01  0.5422E+02
  15.900  0.5299E+01  0.5427E+02
  15.910  0.7586E-01  0.5427E+02
  15.920  0.2537E+00  0.5428E+02
  15.930  0.2312E+01  0.5430E+02
  15.940  0.1826E+01  0.5432E+02
  15.950  0.1133E+01  0.5433E+02
  15.960  0.1643E+01  0.5435E+02
  15.970  0.2651E+01  0.5437E+02
  15.980  0.2927E+01  0.5440E+02
  15.990  0.2907E+01  0.5443E+02
  16.000  0.3109E+01  0.5446E+02
